# t(fs)   T(K)
0.00000000 298.37697510
0.30000000 298.44396892
0.60000000 298.50768922
0.90000000 298.56818129
1.20000000 298.62549041
1.50000000 298.67966189
1.80000000 298.73074101
2.10000000 298.77877306
2.40000000 298.82380335
2.70000000 298.86587716
3.00000000 298.90503978
3.30000000 298.94133650
3.60000000 298.97481263
3.90000000 299.00551345
4.20000000 299.03348425
4.50000000 299.05877033
4.80000000 299.08141698
5.10000000 299.10146949
5.40000000 299.11897315
5.70000000 299.13397327
6.00000000 299.14651512
6.30000000 299.15664400
6.60000000 299.16440521
6.90000000 299.16984404
7.20000000 299.17300578
7.50000000 299.17393572
7.80000000 299.17267915
8.10000000 299.16928138
8.40000000 299.16378768
8.70000000 299.15624336
9.00000000 299.14669370
9.30000000 299.13518400
9.60000000 299.12175955
9.90000000 299.10646564
10.20000000 299.08934757
10.50000000 299.07045063
10.80000000 299.04982011
11.10000000 299.02750130
11.40000000 299.00353950
11.70000000 298.97798000
12.00000000 298.95086808
12.30000000 298.92224906
12.60000000 298.89216820
12.90000000 298.86067082
13.20000000 298.82780220
13.50000000 298.79360763
13.80000000 298.75813241
14.10000000 298.72142183
14.40000000 298.68352118
14.70000000 298.64447576
15.00000000 298.60433085
15.30000000 298.56313175
15.60000000 298.52092375
15.90000000 298.47775215
16.20000000 298.43366223
16.50000000 298.38869930
16.80000000 298.34290863
17.10000000 298.29633554
17.40000000 298.24902530
17.70000000 298.20102320
18.00000000 298.15237456
18.30000000 298.10312464
18.60000000 298.05331876
18.90000000 298.00300219
19.20000000 297.95222024
19.50000000 297.90101820
19.80000000 297.84944135
20.10000000 297.79753499
20.40000000 297.74534441
20.70000000 297.69291491
21.00000000 297.64029178
21.30000000 297.58752031
21.60000000 297.53464580
21.90000000 297.48171353
22.20000000 297.42876880
22.50000000 297.28138112
22.80000000 297.17718637
23.10000000 297.09680723
23.40000000 297.04299727
23.70000000 297.01372855
24.00000000 297.00294667
24.30000000 297.00231550
24.60000000 297.00337898
24.90000000 296.99948091
25.20000000 296.98698551
25.50000000 296.96550500
25.80000000 296.93720242
26.10000000 296.90566046
26.40000000 296.87471511
26.70000000 296.84757287
27.00000000 296.82640109
27.30000000 296.81229754
27.60000000 296.80546643
27.90000000 296.80542854
28.20000000 296.81120856
28.50000000 296.82147632
28.80000000 296.83458056
29.10000000 296.84847989
29.40000000 296.86058978
29.70000000 296.86765667
30.00000000 296.86583779
30.30000000 296.85113725
30.60000000 296.82027816
30.90000000 296.77178114
31.20000000 296.70684244
31.50000000 296.62958824
31.80000000 296.54640880
32.10000000 296.46450773
32.40000000 296.39016217
32.70000000 296.32734752
33.00000000 296.27720182
33.30000000 296.23848241
33.60000000 296.20871007
33.90000000 296.18544968
34.20000000 296.16728588
34.50000000 296.15409616
34.80000000 296.14658676
35.10000000 296.14546041
35.40000000 296.15065809
35.70000000 296.16098538
36.00000000 296.17424169
36.30000000 296.18778262
36.60000000 296.19925644
36.90000000 296.20729394
37.20000000 296.21200696
37.50000000 296.21514617
37.80000000 296.21983231
38.10000000 296.22981182
38.40000000 296.24833477
38.70000000 296.27690143
39.00000000 296.31429281
39.30000000 296.35632950
39.60000000 296.39652498
39.90000000 296.42752297
40.20000000 296.44287782
40.50000000 296.43856549
40.80000000 296.41375370
41.10000000 296.37066675
41.40000000 296.31375752
41.70000000 296.24858591
42.00000000 296.18076942
42.30000000 296.11528073
42.60000000 296.05613261
42.90000000 296.00634887
43.20000000 295.96803230
43.50000000 295.94235043
43.80000000 295.92933978
44.10000000 295.92758190
44.40000000 295.93401615
44.70000000 295.94408633
45.00000000 295.95231755
45.30000000 295.95326652
45.60000000 295.94266099
45.90000000 295.91845779
46.20000000 295.88158643
46.50000000 295.83619382
46.80000000 295.78923830
47.10000000 295.74936824
47.40000000 295.72516879
47.70000000 295.72313835
48.00000000 295.74592476
48.30000000 295.79139631
48.60000000 295.85292337
48.90000000 295.92080493
49.20000000 295.98439474
49.50000000 296.03425653
49.80000000 296.06371258
50.10000000 296.06955985
50.40000000 296.05203341
50.70000000 296.01421973
51.00000000 295.96128893
51.30000000 295.89971508
51.60000000 295.83645432
51.90000000 295.77816716
52.20000000 295.73053585
52.50000000 295.69765067
52.80000000 295.68149225
53.10000000 295.68159660
53.40000000 295.69497125
53.70000000 295.71632877
54.00000000 295.73869487
54.30000000 295.75440221
54.60000000 295.75642894
54.90000000 295.73988856
55.20000000 295.70333601
55.50000000 295.64955940
55.80000000 295.58561802
56.10000000 295.52190366
56.40000000 295.47026927
56.70000000 295.44164910
57.00000000 295.44367282
57.30000000 295.47894310
57.60000000 295.54456900
57.90000000 295.63300495
58.20000000 295.73383252
58.50000000 295.83591178
58.80000000 295.92932867
59.10000000 296.00680359
59.40000000 296.06442252
59.70000000 296.10172602
60.00000000 296.12137108
60.30000000 296.12847773
60.60000000 296.12970693
60.90000000 296.13222155
61.20000000 296.14265465
61.50000000 296.16617050
61.80000000 296.20574788
62.10000000 296.26177478
62.40000000 296.33200558
62.70000000 296.41183523
63.00000000 296.49488212
63.30000000 296.57392910
63.60000000 296.64208553
63.90000000 296.69397586
64.20000000 296.72679618
64.50000000 296.74101842
64.80000000 296.74054084
65.10000000 296.73224682
65.40000000 296.72497579
65.70000000 296.72802318
66.00000000 296.74947955
66.30000000 296.79474674
66.60000000 296.86558063
66.90000000 296.95994957
67.20000000 297.07266006
67.50000000 297.19656632
67.80000000 297.32401462
68.10000000 297.44812919
68.40000000 297.56372897
68.70000000 297.66778412
69.00000000 297.75945441
69.30000000 297.83985264
69.60000000 297.91164842
69.90000000 297.97858440
70.20000000 298.04497002
70.50000000 298.11513130
70.80000000 298.19285655
71.10000000 298.28084057
71.40000000 298.38014205
71.70000000 298.48982378
72.00000000 298.60688859
72.30000000 298.72662453
72.60000000 298.84333686
72.90000000 298.95127733
73.20000000 299.04552333
73.50000000 299.12261872
73.80000000 299.18095362
74.10000000 299.22088080
74.40000000 299.24466929
74.70000000 299.25629569
75.00000000 299.26095445
75.30000000 299.26428682
75.60000000 299.27142226
75.90000000 299.28601692
76.20000000 299.30956559
76.50000000 299.34126931
76.80000000 299.37847866
77.10000000 299.41753342
77.40000000 299.45470258
77.70000000 299.48689797
78.00000000 299.51204119
78.30000000 299.52908159
78.60000000 299.53782476
78.90000000 299.53874323
79.20000000 299.53285455
79.50000000 299.52176434
79.80000000 299.50773160
80.10000000 299.49354291
80.40000000 299.48210840
80.70000000 299.47580581
81.00000000 299.47581091
81.30000000 299.48171517
81.60000000 299.49158832
81.90000000 299.50241250
82.20000000 299.51059395
82.50000000 299.51237148
82.80000000 299.50412675
83.10000000 299.48262055
83.40000000 299.44533793
83.70000000 299.39099889
84.00000000 299.32008924
84.30000000 299.23509838
84.60000000 299.14019596
84.90000000 299.04039333
85.20000000 298.94044188
85.50000000 298.84389254
85.80000000 298.75266080
86.10000000 298.66708348
86.40000000 298.58628633
86.70000000 298.50858320
87.00000000 298.43172341
87.30000000 298.35305230
87.60000000 298.26965914
87.90000000 298.17865471
88.20000000 298.07769910
88.50000000 297.96564576
88.80000000 297.84314474
89.10000000 297.71298131
89.40000000 297.57986923
89.70000000 297.44973975
90.00000000 297.32874948
90.30000000 297.22219661
90.60000000 297.13363925
90.90000000 297.06434964
91.20000000 297.01313342
91.50000000 296.97651751
91.80000000 296.94921092
92.10000000 296.92480119
92.40000000 296.89671864
92.70000000 296.85935090
93.00000000 296.80910599
93.30000000 296.74513044
93.60000000 296.66940498
93.90000000 296.58614097
94.20000000 296.50065576
94.50000000 296.41815689
94.80000000 296.34285883
95.10000000 296.27759755
95.40000000 296.22379501
95.70000000 296.18157891
96.00000000 296.14984448
96.30000000 296.12621730
96.60000000 296.10709368
96.90000000 296.08787661
97.20000000 296.06350333
97.50000000 296.02930596
97.80000000 295.98201556
98.10000000 295.92065666
98.40000000 295.84710623
98.70000000 295.76613195
99.00000000 295.68489726
99.30000000 295.61197637
99.60000000 295.55597809
99.90000000 295.52398955
100.20000000 295.52013839
100.50000000 295.54468325
100.80000000 295.59389146
101.10000000 295.66076363
101.40000000 295.73646293
101.70000000 295.81205919
102.00000000 295.88023683
102.30000000 295.93661122
102.60000000 295.98027478
102.90000000 296.01354816
103.20000000 296.04107905
103.50000000 296.06859016
103.80000000 296.10168932
104.10000000 296.14496006
104.40000000 296.20145175
104.70000000 296.27254650
105.00000000 296.35803504
105.30000000 296.45625595
105.60000000 296.56418784
105.90000000 296.67758706
106.20000000 296.79127565
106.50000000 296.89960827
106.80000000 296.99720928
107.10000000 297.07993420
107.40000000 297.14581765
107.70000000 297.19579344
108.00000000 297.23399337
108.30000000 297.26734148
108.60000000 297.30439206
108.90000000 297.35367928
109.20000000 297.42192951
109.50000000 297.51260916
109.80000000 297.62521805
110.10000000 297.75549487
110.40000000 297.89650016
110.70000000 298.04028645
111.00000000 298.17964129
111.30000000 298.30951451
111.60000000 298.42789507
111.90000000 298.53590816
112.20000000 298.63720947
112.50000000 298.73688957
112.80000000 298.84021481
113.10000000 298.95155494
113.40000000 299.07373695
113.70000000 299.20788151
114.00000000 299.35360467
114.30000000 299.50937783
114.60000000 299.67284960
114.90000000 299.84104637
115.20000000 300.01041718
115.50000000 300.17684465
115.80000000 300.33577518
116.10000000 300.48252854
116.40000000 300.61293292
116.70000000 300.72417501
117.00000000 300.81553662
117.30000000 300.88880805
117.60000000 300.94811579
117.90000000 300.99907928
118.20000000 301.04753681
118.50000000 301.09825713
118.80000000 301.15398424
119.10000000 301.21501766
119.40000000 301.27934380
119.70000000 301.34321883
120.00000000 301.40207836
120.30000000 301.45163210
120.60000000 301.48885998
120.90000000 301.51270098
121.20000000 301.52428162
121.50000000 301.52650626
121.80000000 301.52323574
122.10000000 301.51834419
122.40000000 301.51492719
122.70000000 301.51491386
123.00000000 301.51908349
123.30000000 301.52736944
123.60000000 301.53923246
123.90000000 301.55391552
124.20000000 301.57048773
124.50000000 301.58765588
124.80000000 301.60353436
125.10000000 301.61559908
125.40000000 301.62091039
125.70000000 301.61663088
126.00000000 301.60073236
126.30000000 301.57253542
126.60000000 301.53285324
126.90000000 301.48368801
127.20000000 301.42757596
127.50000000 301.36686832
127.80000000 301.30319860
128.10000000 301.23724383
128.40000000 301.16873447
128.70000000 301.09664590
129.00000000 301.01946888
129.30000000 300.93550487
129.60000000 300.84326865
129.90000000 300.74193162
130.20000000 300.63165999
130.50000000 300.51367241
130.80000000 300.38990984
131.10000000 300.26255965
131.40000000 300.13360905
131.70000000 300.00460579
132.00000000 299.87674372
132.30000000 299.75111247
132.60000000 299.62898623
132.90000000 299.51191416
133.20000000 299.40150012
133.50000000 299.29905665
133.80000000 299.20526558
134.10000000 299.11995466
134.40000000 299.04215094
134.70000000 298.97035880
135.00000000 298.90286871
135.30000000 298.83809872
135.60000000 298.77481685
135.90000000 298.71218783
136.20000000 298.64973444
136.50000000 298.58725248
136.80000000 298.52474970
137.10000000 298.46254795
137.40000000 298.40144641
137.70000000 298.34270522
138.00000000 298.28781352
138.30000000 298.23806155
138.60000000 298.19402757
138.90000000 298.15525869
139.20000000 298.12029953
139.50000000 298.08699701
139.80000000 298.05298056
140.10000000 298.01611110
140.40000000 297.97477516
140.70000000 297.92807347
141.00000000 297.87596574
141.30000000 297.81938246
141.60000000 297.76029436
141.90000000 297.70164559
142.20000000 297.64703577
142.50000000 297.60016507
142.80000000 297.56420505
143.10000000 297.54128345
143.40000000 297.53221204
143.70000000 297.53649732
144.00000000 297.55256330
144.30000000 297.57809654
144.60000000 297.61039650
144.90000000 297.64669320
145.20000000 297.68441860
145.50000000 297.72142254
145.80000000 297.75617607
146.10000000 297.78797419
146.40000000 297.81715108
146.70000000 297.84520787
147.00000000 297.87465522
147.30000000 297.90851141
147.60000000 297.94956930
147.90000000 297.99955307
148.20000000 298.05849412
148.50000000 298.12459693
148.80000000 298.19460479
149.10000000 298.26462384
149.40000000 298.33106192
149.70000000 298.39125546
150.00000000 298.44366840
150.30000000 298.48780421
150.60000000 298.52403714
150.90000000 298.55351190
151.20000000 298.57811908
151.50000000 298.60046593
151.80000000 298.62372110
152.10000000 298.65122879
152.40000000 298.68594303
152.70000000 298.72986154
153.00000000 298.78360595
153.30000000 298.84631928
153.60000000 298.91593049
153.90000000 298.98961174
154.20000000 299.06433385
154.50000000 299.13741852
154.80000000 299.20699606
155.10000000 299.27233634
155.40000000 299.33401226
155.70000000 299.39384250
156.00000000 299.45462385
156.30000000 299.51963560
156.60000000 299.59191233
156.90000000 299.67344953
157.20000000 299.76451596
157.50000000 299.86329811
157.80000000 299.96606425
158.10000000 300.06790604
158.40000000 300.16384038
158.70000000 300.24983319
159.00000000 300.32339883
159.30000000 300.38368997
159.60000000 300.43121617
159.90000000 300.46741779
160.20000000 300.49427441
160.50000000 300.51405708
160.80000000 300.52916512
161.10000000 300.54196286
161.40000000 300.55454963
161.70000000 300.56843520
162.00000000 300.58428152
162.30000000 300.60174902
162.60000000 300.61951106
162.90000000 300.63548595
163.20000000 300.64727163
163.50000000 300.65266493
163.80000000 300.65016188
164.10000000 300.63938755
164.40000000 300.62135008
164.70000000 300.59845809
165.00000000 300.57427502
165.30000000 300.55294342
165.60000000 300.53841792
165.90000000 300.53366560
166.20000000 300.53995002
166.50000000 300.55646880
166.80000000 300.58047319
167.10000000 300.60784407
167.40000000 300.63400641
167.70000000 300.65488954
168.00000000 300.66761342
168.30000000 300.67075515
168.60000000 300.66423548
168.90000000 300.64903943
169.20000000 300.62691758
169.50000000 300.60005086
169.80000000 300.57070462
170.10000000 300.54088701
170.40000000 300.51204156
170.70000000 300.48485680
171.00000000 300.45918950
171.30000000 300.43415104
171.60000000 300.40831974
171.90000000 300.38003806
172.20000000 300.34781504
172.50000000 300.31071808
172.80000000 300.26864998
173.10000000 300.22250327
173.40000000 300.17412475
173.70000000 300.12608021
174.00000000 300.08126720
174.30000000 300.04249009
174.60000000 300.01203836
174.90000000 299.99130133
175.20000000 299.98055520
175.50000000 299.97900058
175.80000000 299.98504756
176.10000000 299.99672859
176.40000000 300.01212768
176.70000000 300.02968183
177.00000000 300.04830143
177.30000000 300.06737861
177.60000000 300.08672659
177.90000000 300.10661932
178.20000000 300.12789966
178.50000000 300.15188482
178.80000000 300.18005294
179.10000000 300.21358416
179.40000000 300.25281774
179.70000000 300.29685654
180.00000000 300.34357178
180.30000000 300.38998853
180.60000000 300.43292563
180.90000000 300.46971968
181.20000000 300.49881762
181.50000000 300.52010972
181.80000000 300.53490963
182.10000000 300.54552483
182.40000000 300.55453331
182.70000000 300.56407471
183.00000000 300.57536858
183.30000000 300.58859241
183.60000000 300.60316762
183.90000000 300.61821124
184.20000000 300.63291802
184.50000000 300.64681585
184.80000000 300.65984576
185.10000000 300.67235477
185.40000000 300.68507404
185.70000000 300.69895633
186.00000000 300.71489834
186.30000000 300.73346122
186.60000000 300.75472271
186.90000000 300.77838152
187.20000000 300.80406822
187.50000000 300.83168614
187.80000000 300.86157460
188.10000000 300.89435748
188.40000000 300.93051568
188.70000000 300.96987593
189.00000000 301.01125782
189.30000000 301.05245625
189.60000000 301.09062882
189.90000000 301.12299668
190.20000000 301.14768994
190.50000000 301.16443860
190.80000000 301.17478887
191.10000000 301.18172030
191.40000000 301.18873775
191.70000000 301.19875109
192.00000000 301.21317259
192.30000000 301.23154722
192.60000000 301.25183996
192.90000000 301.27118183
193.20000000 301.28674353
193.50000000 301.29643122
193.80000000 301.29918897
194.10000000 301.29495009
194.40000000 301.28438090
194.70000000 301.26860207
195.00000000 301.24896887
195.30000000 301.22688117
195.60000000 301.20365990
195.90000000 301.18048388
196.20000000 301.15835976
196.50000000 301.13813691
196.80000000 301.12052017
197.10000000 301.10608557
197.40000000 301.09525401
197.70000000 301.08814729
198.00000000 301.08435577
198.30000000 301.08270334
198.60000000 301.08121080
198.90000000 301.07738904
199.20000000 301.06881158
199.50000000 301.05385105
199.80000000 301.03228069
200.10000000 301.00543170
200.40000000 300.97578099
200.70000000 300.94612947
201.00000000 300.91873255
201.30000000 300.89470138
201.60000000 300.87384906
201.90000000 300.85496543
202.20000000 300.83635921
202.50000000 300.81643397
202.80000000 300.79411606
203.10000000 300.76899795
203.40000000 300.74120820
203.70000000 300.71114479
204.00000000 300.67919327
204.30000000 300.64550032
204.60000000 300.60986190
204.90000000 300.57172630
205.20000000 300.53031591
205.50000000 300.48487660
205.80000000 300.43498466
206.10000000 300.38086803
206.40000000 300.32358382
206.70000000 300.26495102
207.00000000 300.20716833
207.30000000 300.15221779
207.60000000 300.10130750
207.90000000 300.05459054
208.20000000 300.01128103
208.50000000 299.97010843
208.80000000 299.92985710
209.10000000 299.88970177
209.40000000 299.84926338
209.70000000 299.80844592
210.00000000 299.76727189
210.30000000 299.72592826
210.60000000 299.68494072
210.90000000 299.64530227
211.20000000 299.60840495
211.50000000 299.57578695
211.80000000 299.54876906
212.10000000 299.52814951
212.40000000 299.51407772
212.70000000 299.50607947
213.00000000 299.50326485
213.30000000 299.50454643
213.60000000 299.50872427
213.90000000 299.51444393
214.20000000 299.52009632
214.50000000 299.52388688
214.80000000 299.52414494
215.10000000 299.51980858
215.40000000 299.51093819
215.70000000 299.49895102
216.00000000 299.48637180
216.30000000 299.47618483
216.60000000 299.47103332
216.90000000 299.47252991
217.20000000 299.48091335
217.50000000 299.49511103
217.80000000 299.51310346
218.10000000 299.53238709
218.40000000 299.55039725
218.70000000 299.56492434
219.00000000 299.57457066
219.30000000 299.57915408
219.60000000 299.57996513
219.90000000 299.57970090
220.20000000 299.58192461
220.50000000 299.59018389
220.80000000 299.60708362
221.10000000 299.63362402
221.40000000 299.66908538
221.70000000 299.71147484
222.00000000 299.75831557
222.30000000 299.80742925
222.60000000 299.85737510
222.90000000 299.90738541
223.20000000 299.95693185
223.50000000 300.00529830
223.80000000 300.05140738
224.10000000 300.09402878
224.40000000 300.13229564
224.70000000 300.16626871
225.00000000 300.19724848
225.30000000 300.22759754
225.60000000 300.26015427
225.90000000 300.29745343
226.20000000 300.34098177
226.50000000 300.39072736
226.80000000 300.44515008
227.10000000 300.50154240
227.40000000 300.55672875
227.70000000 300.60793588
228.00000000 300.65356911
228.30000000 300.69364853
228.60000000 300.72976513
228.90000000 300.76460710
229.20000000 300.80122578
229.50000000 300.84224122
229.80000000 300.88922544
230.10000000 300.94236426
230.40000000 301.00052506
230.70000000 301.06181451
231.00000000 301.12436334
231.30000000 301.18709569
231.60000000 301.25013561
231.90000000 301.31462208
232.20000000 301.38207819
232.50000000 301.45356400
232.80000000 301.52898564
233.10000000 301.60689026
233.40000000 301.68477461
233.70000000 301.75975828
234.00000000 301.82937135
234.30000000 301.89220401
234.60000000 301.94820342
234.90000000 301.99851076
235.20000000 302.04494144
235.50000000 302.08929077
235.80000000 302.13270000
236.10000000 302.17532006
236.40000000 302.21641046
236.70000000 302.25485178
237.00000000 302.28982149
237.30000000 302.32129632
237.60000000 302.35011344
237.90000000 302.37760358
238.20000000 302.40498657
238.50000000 302.43280872
238.80000000 302.46073527
239.10000000 302.48770776
239.40000000 302.51239402
239.70000000 302.53379637
240.00000000 302.55179079
240.30000000 302.56745337
240.60000000 302.58307650
240.90000000 302.60177377
241.20000000 302.62672182
241.50000000 302.66029168
241.80000000 302.70331432
242.10000000 302.75464497
242.40000000 302.81121807
242.70000000 302.86862257
243.00000000 302.92208532
243.30000000 302.96761340
243.60000000 303.00294535
243.90000000 303.02802977
244.20000000 303.04488321
244.50000000 303.05689015
244.80000000 303.06775412
245.10000000 303.08049756
245.40000000 303.09687720
245.70000000 303.11736346
246.00000000 303.14151925
246.30000000 303.16842545
246.60000000 303.19694929
246.90000000 303.22574935
247.20000000 303.25306907
247.50000000 303.27660503
247.80000000 303.29364221
248.10000000 303.30148986
248.40000000 303.29813733
248.70000000 303.28294820
249.00000000 303.25718775
249.30000000 303.22419397
249.60000000 303.18903009
249.90000000 303.15768029
250.20000000 303.13598178
250.50000000 303.12844383
250.80000000 303.13727838
251.10000000 303.16187290
251.40000000 303.19881482
251.70000000 303.24252108
252.00000000 303.28637907
252.30000000 303.32415445
252.60000000 303.35131944
252.90000000 303.36590341
253.20000000 303.36864670
253.50000000 303.36248911
253.80000000 303.35163568
254.10000000 303.34059319
254.40000000 303.33345659
254.70000000 303.33353624
255.00000000 303.34318423
255.30000000 303.36358615
255.60000000 303.39443956
255.90000000 303.43364456
256.20000000 303.47729900
256.50000000 303.52010454
256.80000000 303.55619810
257.10000000 303.58022929
257.40000000 303.58833409
257.70000000 303.57885825
258.00000000 303.55265759
258.30000000 303.51293973
258.60000000 303.46480500
258.90000000 303.41445886
259.20000000 303.36814864
259.50000000 303.33105447
259.80000000 303.30631250
260.10000000 303.29434796
260.40000000 303.29270926
260.70000000 303.29655289
261.00000000 303.29970230
261.30000000 303.29601553
261.60000000 303.28070181
261.90000000 303.25124117
262.20000000 303.20765009
262.50000000 303.15210627
262.80000000 303.08815502
263.10000000 303.01983120
263.40000000 302.95100957
263.70000000 302.88499978
264.00000000 302.82430521
264.30000000 302.77045637
264.60000000 302.72383059
264.90000000 302.68346830
265.20000000 302.64707365
265.50000000 302.61135232
265.80000000 302.57263323
266.10000000 302.52762758
266.40000000 302.47406993
266.70000000 302.41107399
267.00000000 302.33912471
267.30000000 302.25982404
267.60000000 302.17558769
267.90000000 302.08936590
268.20000000 302.00438303
268.50000000 301.92376727
268.80000000 301.84999864
269.10000000 301.78429203
269.40000000 301.72615553
269.70000000 301.67336604
270.00000000 301.62243473
270.30000000 301.56946219
270.60000000 301.51110702
270.90000000 301.44535473
271.20000000 301.37185430
271.50000000 301.29171781
271.80000000 301.20697481
272.10000000 301.11992611
272.40000000 301.03257631
272.70000000 300.94628664
273.00000000 300.86166929
273.30000000 300.77872077
273.60000000 300.69706236
273.90000000 300.61617262
274.20000000 300.53559497
274.50000000 300.45508616
274.80000000 300.37467867
275.10000000 300.29469653
275.40000000 300.21566154
275.70000000 300.13808069
276.00000000 300.06222948
276.30000000 299.98792053
276.60000000 299.91444125
276.90000000 299.84077112
277.20000000 299.76596501
277.50000000 299.68959897
277.80000000 299.61201469
278.10000000 299.53423263
278.40000000 299.45763777
278.70000000 299.38361699
279.00000000 299.31333378
279.30000000 299.24763538
279.60000000 299.18707030
279.90000000 299.13199330
280.20000000 299.08252492
280.50000000 299.03839286
280.80000000 298.99881133
281.10000000 298.96243758
281.40000000 298.92745241
281.70000000 298.89172220
282.00000000 298.85306223
282.30000000 298.80958206
282.60000000 298.76004950
282.90000000 298.70425653
283.20000000 298.64329127
283.50000000 298.57956621
283.80000000 298.51650712
284.10000000 298.45792930
284.40000000 298.40721938
284.70000000 298.36656828
285.00000000 298.33647390
285.30000000 298.31563184
285.60000000 298.30123579
285.90000000 298.28964450
286.20000000 298.27733195
286.50000000 298.26177778
286.80000000 298.24200630
287.10000000 298.21873329
287.40000000 298.19409232
287.70000000 298.17105805
288.00000000 298.15277555
288.30000000 298.14200251
288.60000000 298.14078367
288.90000000 298.15032936
289.20000000 298.17099162
289.50000000 298.20223325
289.80000000 298.24266594
290.10000000 298.29018029
290.40000000 298.34218002
290.70000000 298.39588232
291.00000000 298.44858671
291.30000000 298.49791815
291.60000000 298.54203033
291.90000000 298.57983583
292.20000000 298.61131724
292.50000000 298.63774601
292.80000000 298.66166917
293.10000000 298.68652535
293.40000000 298.71589750
293.70000000 298.75263197
294.00000000 298.79803861
294.30000000 298.85144306
294.60000000 298.91031233
294.90000000 298.97090625
295.20000000 299.02927124
295.50000000 299.08230392
295.80000000 299.12855863
296.10000000 299.16856145
296.40000000 299.20460748
296.70000000 299.24017987
297.00000000 299.27920803
297.30000000 299.32535672
297.60000000 299.38145168
297.90000000 299.44918614
298.20000000 299.52907341
298.50000000 299.62050306
298.80000000 299.72186700
299.10000000 299.83076063
299.40000000 299.94422807
299.70000000 300.05902231
300.00000000 300.17188510
300.30000000 300.27984496
300.60000000 300.38058386
300.90000000 300.47283372
301.20000000 300.55668212
301.50000000 300.63370670
301.80000000 300.70674760
302.10000000 300.77932663
302.40000000 300.85485741
302.70000000 300.93579940
303.00000000 301.02298158
303.30000000 301.11528649
303.60000000 301.20976500
303.90000000 301.30225417
304.20000000 301.38841910
304.50000000 301.46486348
304.80000000 301.52996962
305.10000000 301.58423348
305.40000000 301.63001932
305.70000000 301.67084420
306.00000000 301.71050663
306.30000000 301.75234899
306.60000000 301.79879077
306.90000000 301.85116598
307.20000000 301.90985247
307.50000000 301.97458050
307.80000000 302.04475661
308.10000000 302.11969943
308.40000000 302.19870977
308.70000000 302.28097005
309.00000000 302.36537008
309.30000000 302.45042783
309.60000000 302.53437098
309.90000000 302.61547728
310.20000000 302.69255937
310.50000000 302.76530413
310.80000000 302.83439245
311.10000000 302.90134247
311.40000000 302.96811304
311.70000000 303.03658071
312.00000000 303.10802678
312.30000000 303.18275708
312.60000000 303.25995878
312.90000000 303.33784547
313.20000000 303.41401029
313.50000000 303.48592935
313.80000000 303.55154699
314.10000000 303.60974420
314.40000000 303.66056265
314.70000000 303.70509481
315.00000000 303.74508818
315.30000000 303.78242358
315.60000000 303.81861467
315.90000000 303.85449751
316.20000000 303.89018822
316.50000000 303.92534575
316.80000000 303.95960502
317.10000000 303.99296969
317.40000000 304.02599314
317.70000000 304.05964231
318.00000000 304.09494834
318.30000000 304.13259276
318.60000000 304.17260996
318.90000000 304.21436968
319.20000000 304.25678582
319.50000000 304.29863638
319.80000000 304.33890925
320.10000000 304.37705896
320.40000000 304.41312114
320.70000000 304.44767976
321.00000000 304.48165817
321.30000000 304.51602417
321.60000000 304.55152771
321.90000000 304.58850126
322.20000000 304.62674091
322.50000000 304.66551574
322.80000000 304.70373340
323.10000000 304.74022196
323.40000000 304.77405079
323.70000000 304.80474583
324.00000000 304.83229371
324.30000000 304.85696814
324.60000000 304.87904623
324.90000000 304.89853807
325.20000000 304.91517529
325.50000000 304.92862840
325.80000000 304.93877890
326.10000000 304.94596015
326.40000000 304.95102024
326.70000000 304.95519676
327.00000000 304.95986027
327.30000000 304.96620894
327.60000000 304.97499700
327.90000000 304.98627969
328.20000000 304.99919768
328.50000000 305.01192033
328.80000000 305.02187634
329.10000000 305.02630587
329.40000000 305.02303981
329.70000000 305.01126872
330.00000000 304.99202374
330.30000000 304.96811067
330.60000000 304.94348343
330.90000000 304.92223936
331.20000000 304.90746129
331.50000000 304.90034129
331.80000000 304.89991013
332.10000000 304.90340452
332.40000000 304.90713487
332.70000000 304.90753017
333.00000000 304.90200755
333.30000000 304.88939939
333.60000000 304.86986908
333.90000000 304.84452808
334.20000000 304.81504813
334.50000000 304.78340900
334.80000000 304.75172568
335.10000000 304.72207243
335.40000000 304.69622100
335.70000000 304.67528343
336.00000000 304.65948153
336.30000000 304.64819821
336.60000000 304.64026662
336.90000000 304.63429380
337.20000000 304.62881482
337.50000000 304.62229864
337.80000000 304.61310562
338.10000000 304.59959191
338.40000000 304.58045589
338.70000000 304.55526966
339.00000000 304.52498300
339.30000000 304.49212067
339.60000000 304.46048912
339.90000000 304.43439212
340.20000000 304.41756385
340.50000000 304.41216928
340.80000000 304.41822882
341.10000000 304.43366885
341.40000000 304.45493455
341.70000000 304.47788395
342.00000000 304.49859392
342.30000000 304.51389674
342.60000000 304.52168084
342.90000000 304.52102876
343.20000000 304.51233239
343.50000000 304.49738608
343.80000000 304.47932092
344.10000000 304.46221245
344.40000000 304.45031156
344.70000000 304.44711177
345.00000000 304.45454954
345.30000000 304.47255914
345.60000000 304.49907988
345.90000000 304.53048570
346.20000000 304.56223429
346.50000000 304.58952113
346.80000000 304.60790489
347.10000000 304.61386030
347.40000000 304.60531071
347.70000000 304.58207815
348.00000000 304.54608074
348.30000000 304.50118588
348.60000000 304.45261832
348.90000000 304.40593897
349.20000000 304.36582292
349.50000000 304.33499349
349.80000000 304.31368790
350.10000000 304.29981355
350.40000000 304.28962618
350.70000000 304.27862443
351.00000000 304.26239442
351.30000000 304.23716276
351.60000000 304.20010047
351.90000000 304.14959273
352.20000000 304.08547886
352.50000000 304.00920726
352.80000000 303.92385722
353.10000000 303.83390378
353.40000000 303.74466806
353.70000000 303.66153474
354.00000000 303.58902579
354.30000000 303.52990952
354.60000000 303.48461627
354.90000000 303.45108335
355.20000000 303.42507997
355.50000000 303.40100684
355.80000000 303.37299917
356.10000000 303.33607149
356.40000000 303.28705278
356.70000000 303.22513600
357.00000000 303.15190656
357.30000000 303.07080275
357.60000000 302.98614353
357.90000000 302.90197944
358.20000000 302.82107240
358.50000000 302.74435384
358.80000000 302.67100358
359.10000000 302.59900469
359.40000000 302.52592157
359.70000000 302.44957990
360.00000000 302.36840630
360.30000000 302.28145807
360.60000000 302.18827998
360.90000000 302.08875440
361.20000000 301.98314296
361.50000000 301.87225307
361.80000000 301.75758196
362.10000000 301.64137280
362.40000000 301.52648984
362.70000000 301.41612848
363.00000000 301.31338854
363.30000000 301.22069902
363.60000000 301.13923780
363.90000000 301.06851554
364.20000000 301.00633854
364.50000000 300.94928334
364.80000000 300.89356032
365.10000000 300.83608029
365.40000000 300.77541662
365.70000000 300.71228132
366.00000000 300.64935770
366.30000000 300.59052473
366.60000000 300.53965794
366.90000000 300.49940546
367.20000000 300.47038930
367.50000000 300.45108253
367.80000000 300.43836878
368.10000000 300.42848579
368.40000000 300.41797009
368.70000000 300.40435980
369.00000000 300.38647285
369.30000000 300.36428618
369.60000000 300.33859857
369.90000000 300.31060947
370.20000000 300.28156799
370.50000000 300.25259021
370.80000000 300.22464248
371.10000000 300.19861729
371.40000000 300.17538996
371.70000000 300.15577599
372.00000000 300.14035750
372.30000000 300.12926583
372.60000000 300.12206472
372.90000000 300.11786532
373.20000000 300.11569163
373.50000000 300.11502472
373.80000000 300.11634073
374.10000000 300.12140740
374.40000000 300.13315576
374.70000000 300.15507118
375.00000000 300.19025641
375.30000000 300.24046066
375.60000000 300.30538383
375.90000000 300.38253681
376.20000000 300.46777252
376.50000000 300.55630614
376.80000000 300.64390130
377.10000000 300.72779924
377.40000000 300.80710850
377.70000000 300.88266186
378.00000000 300.95643277
378.30000000 301.03079624
378.60000000 301.10785929
378.90000000 301.18899358
379.20000000 301.27459203
379.50000000 301.36403689
379.80000000 301.45595460
380.10000000 301.54852617
380.40000000 301.63977712
380.70000000 301.72780178
381.00000000 301.81076780
381.30000000 301.88682899
381.60000000 301.95413484
381.90000000 302.01112507
382.20000000 302.05713732
382.50000000 302.09311359
382.80000000 302.12206390
383.10000000 302.14894859
383.40000000 302.17990135
383.70000000 302.22085956
384.00000000 302.27601274
384.30000000 302.34662396
384.60000000 302.43055055
384.90000000 302.52265836
385.20000000 302.61606099
385.50000000 302.70378302
385.80000000 302.78032194
386.10000000 302.84268346
386.40000000 302.89067565
386.70000000 302.92653074
387.00000000 302.95410163
387.30000000 302.97789610
387.60000000 303.00220179
387.90000000 303.03036937
388.20000000 303.06423937
388.50000000 303.10383157
388.80000000 303.14734752
389.10000000 303.19147454
389.40000000 303.23191831
389.70000000 303.26400652
390.00000000 303.28325145
390.30000000 303.28584320
390.60000000 303.26910722
390.90000000 303.23196329
391.20000000 303.17532743
391.50000000 303.10234296
391.80000000 303.01826608
392.10000000 302.92983175
392.40000000 302.84406596
392.70000000 302.76679449
393.00000000 302.70130663
393.30000000 302.64755303
393.60000000 302.60212221
393.90000000 302.55906200
394.20000000 302.51131096
394.50000000 302.45233871
394.80000000 302.37755094
395.10000000 302.28509012
395.40000000 302.17595796
395.70000000 302.05356297
396.00000000 301.92285684
396.30000000 301.78936972
396.60000000 301.65835557
396.90000000 301.53407126
397.20000000 301.41928698
397.50000000 301.31507418
397.80000000 301.22077378
398.10000000 301.13410951
398.40000000 301.05143234
398.70000000 300.96810098
399.00000000 300.87905908
399.30000000 300.77962835
399.60000000 300.66638303
399.90000000 300.53794365
400.20000000 300.39547853
400.50000000 300.24270014
400.80000000 300.08523052
401.10000000 299.92945023
401.40000000 299.78107981
401.70000000 299.64388523
402.00000000 299.51893987
402.30000000 299.40460589
402.60000000 299.29716446
402.90000000 299.19184550
403.20000000 299.08397470
403.50000000 298.96991803
403.80000000 298.84765468
404.10000000 298.71697328
404.40000000 298.57921675
404.70000000 298.43677853
405.00000000 298.29254288
405.30000000 298.14929412
405.60000000 298.00930230
405.90000000 297.87417032
406.20000000 297.74482038
406.50000000 297.62159146
406.80000000 297.50437695
407.10000000 297.39266628
407.40000000 297.28549790
407.70000000 297.18139592
408.00000000 297.07842732
408.30000000 296.97454649
408.60000000 296.86823127
408.90000000 296.75925428
409.20000000 296.64923955
409.50000000 296.54169348
409.80000000 296.44140385
410.10000000 296.35327588
410.40000000 296.28092921
410.70000000 296.22556283
411.00000000 296.18554365
411.30000000 296.15691098
411.60000000 296.13459667
411.90000000 296.11392491
412.20000000 296.09181332
412.50000000 296.06731984
412.80000000 296.04150692
413.10000000 296.01676319
413.40000000 295.99590716
413.70000000 295.98131408
414.00000000 295.97425986
414.30000000 295.97467192
414.60000000 295.98124640
414.90000000 295.99183091
415.20000000 296.00396634
415.50000000 296.01541237
415.80000000 296.02450977
416.10000000 296.03029508
416.40000000 296.03243965
416.70000000 296.03108747
417.00000000 296.02664535
417.30000000 296.01967086
417.60000000 296.01089922
417.90000000 296.00137415
418.20000000 295.99258990
418.50000000 295.98643212
418.80000000 295.98482864
419.10000000 295.98916965
419.40000000 295.99972663
419.70000000 296.01541558
420.00000000 296.03404002
420.30000000 296.05301064
420.60000000 296.07032510
420.90000000 296.08541108
421.20000000 296.09949384
421.50000000 296.11531955
421.80000000 296.13635231
422.10000000 296.16578960
422.40000000 296.20566700
422.70000000 296.25626704
423.00000000 296.31602367
423.30000000 296.38184181
423.60000000 296.44978240
423.90000000 296.51592937
424.20000000 296.57714272
424.50000000 296.63156515
424.80000000 296.67871995
425.10000000 296.71926295
425.40000000 296.75452139
425.70000000 296.78600301
426.00000000 296.81502114
426.30000000 296.84249160
426.60000000 296.86897789
426.90000000 296.89483512
427.20000000 296.92028072
427.50000000 296.94530194
427.80000000 296.96935246
428.10000000 296.99107665
428.40000000 297.00834648
428.70000000 297.01868787
429.00000000 297.02004971
429.30000000 297.01164480
429.60000000 296.99456284
429.90000000 296.97189796
430.20000000 296.94827787
430.50000000 296.92894484
430.80000000 296.91860556
431.10000000 296.92038940
431.40000000 296.93522247
431.70000000 296.96169760
432.00000000 296.99646958
432.30000000 297.03507430
432.60000000 297.07288296
432.90000000 297.10600686
433.20000000 297.13201757
433.50000000 297.15032388
433.80000000 297.16213772
434.10000000 297.17004514
434.40000000 297.17734709
434.70000000 297.18729409
435.00000000 297.20232164
435.30000000 297.22351702
435.60000000 297.25043771
435.90000000 297.28123624
436.20000000 297.31302287
436.50000000 297.34227256
436.80000000 297.36512953
437.10000000 297.37770362
437.40000000 297.37648900
437.70000000 297.35902187
438.00000000 297.32458014
438.30000000 297.27460085
438.60000000 297.21269603
438.90000000 297.14414292
439.20000000 297.07495017
439.50000000 297.01075929
439.80000000 296.95580432
440.10000000 296.91219649
440.40000000 296.87966578
440.70000000 296.85576564
441.00000000 296.83650545
441.30000000 296.81729713
441.60000000 296.79400774
441.90000000 296.76390142
442.20000000 296.72627616
442.50000000 296.68264087
442.80000000 296.63640574
443.10000000 296.59219066
443.40000000 296.55490827
443.70000000 296.52881569
444.00000000 296.51670982
444.30000000 296.51935735
444.60000000 296.53528641
444.90000000 296.56096686
445.20000000 296.59129605
445.50000000 296.62032510
445.80000000 296.64207104
446.10000000 296.65133219
446.40000000 296.64448501
446.70000000 296.62003598
447.00000000 296.57881681
447.30000000 296.52373931
447.60000000 296.45910880
447.90000000 296.38973141
448.20000000 296.32003323
448.50000000 296.25338515
448.80000000 296.19166053
449.10000000 296.13503235
449.40000000 296.08208750
449.70000000 296.03015253
450.00000000 295.97580799
450.30000000 295.91558405
450.60000000 295.84672937
450.90000000 295.76797745
451.20000000 295.68009221
451.50000000 295.58605049
451.80000000 295.49077624
452.10000000 295.40034947
452.40000000 295.32091154
452.70000000 295.25759876
453.00000000 295.21369283
453.30000000 295.19018148
453.60000000 295.18575004
453.90000000 295.19710828
454.20000000 295.21952476
454.50000000 295.24747002
454.80000000 295.27538999
455.10000000 295.29857325
455.40000000 295.31392263
455.70000000 295.32048266
456.00000000 295.31953297
456.30000000 295.31410422
456.60000000 295.30809263
456.90000000 295.30520131
457.20000000 295.30804187
457.50000000 295.31761741
457.80000000 295.33317386
458.10000000 295.35238365
458.40000000 295.37175152
458.70000000 295.38715791
459.00000000 295.39452245
459.30000000 295.39049231
459.60000000 295.37306037
459.90000000 295.34204802
460.20000000 295.29933847
460.50000000 295.24871485
460.80000000 295.19534136
461.10000000 295.14502547
461.40000000 295.10333451
461.70000000 295.07476475
462.00000000 295.06220514
462.30000000 295.06668276
462.60000000 295.08732764
462.90000000 295.12154590
463.20000000 295.16539126
463.50000000 295.21418332
463.80000000 295.26338650
464.10000000 295.30961853
464.40000000 295.35154286
464.70000000 295.39029277
465.00000000 295.42918600
465.30000000 295.47278865
465.60000000 295.52559515
465.90000000 295.59073401
466.20000000 295.66906423
466.50000000 295.75896501
466.80000000 295.85678623
467.10000000 295.95765033
467.40000000 296.05642331
467.70000000 296.14857308
468.00000000 296.23077397
468.30000000 296.30127919
468.60000000 296.35994758
468.90000000 296.40796411
469.20000000 296.44743211
469.50000000 296.48089763
469.80000000 296.51088553
470.10000000 296.53959670
470.40000000 296.56878816
470.70000000 296.59979739
471.00000000 296.63363896
471.30000000 296.67102208
471.60000000 296.71214887
471.90000000 296.75637843
472.20000000 296.80202530
472.50000000 296.84654712
472.80000000 296.88724013
473.10000000 296.92230253
473.40000000 296.95179566
473.70000000 296.97809616
474.00000000 297.00565056
474.30000000 297.04000491
474.60000000 297.08643603
474.90000000 297.14865970
475.20000000 297.22795444
475.50000000 297.32290470
475.80000000 297.42978812
476.10000000 297.54344822
476.40000000 297.65834496
476.70000000 297.76951174
477.00000000 297.87331055
477.30000000 297.96785282
477.60000000 298.05304756
477.90000000 298.13035785
478.20000000 298.20229460
478.50000000 298.27170798
478.80000000 298.34100974
479.10000000 298.41154736
479.40000000 298.48331091
479.70000000 298.55506999
480.00000000 298.62491728
480.30000000 298.69088994
480.60000000 298.75138056
480.90000000 298.80523964
481.20000000 298.85161255
481.50000000 298.88978931
481.80000000 298.91935252
482.10000000 298.94058364
482.40000000 298.95497039
482.70000000 298.96545722
483.00000000 298.97620277
483.30000000 298.99193193
483.60000000 299.01696238
483.90000000 299.05420901
484.20000000 299.10448643
484.50000000 299.16631755
484.80000000 299.23632297
485.10000000 299.31005155
485.40000000 299.38303273
485.70000000 299.45178007
486.00000000 299.51449054
486.30000000 299.57136612
486.60000000 299.62451334
486.90000000 299.67743533
487.20000000 299.73428918
487.50000000 299.79898594
487.80000000 299.87427736
488.10000000 299.96102383
488.40000000 300.05782023
488.70000000 300.16114389
489.00000000 300.26597744
489.30000000 300.36675002
489.60000000 300.45832341
489.90000000 300.53677416
490.20000000 300.59987291
490.50000000 300.64720678
490.80000000 300.68008177
491.10000000 300.70121321
491.40000000 300.71418016
491.70000000 300.72284120
492.00000000 300.73070305
492.30000000 300.74037613
492.60000000 300.75326857
492.90000000 300.76945411
493.20000000 300.78772675
493.50000000 300.80583717
493.80000000 300.82097019
494.10000000 300.83040733
494.40000000 300.83220324
494.70000000 300.82573863
495.00000000 300.81199959
495.30000000 300.79362707
495.60000000 300.77464837
495.90000000 300.75990154
496.20000000 300.75434591
496.50000000 300.76220942
496.80000000 300.78611917
497.10000000 300.82651092
497.40000000 300.88146804
497.70000000 300.94704641
498.00000000 301.01798328
498.30000000 301.08866194
498.60000000 301.15412190
498.90000000 301.21080146
499.20000000 301.25703000
499.50000000 301.29321232
499.80000000 301.32156870
500.10000000 301.34550015
500.40000000 301.36874402
500.70000000 301.39442009
501.00000000 301.42421762
501.30000000 301.45797065
501.60000000 301.49363403
501.90000000 301.52770022
502.20000000 301.55588781
502.50000000 301.57388792
502.80000000 301.57811031
503.10000000 301.56634016
503.40000000 301.53817705
503.70000000 301.49521951
504.00000000 301.44097230
504.30000000 301.38041788
504.60000000 301.31933531
504.90000000 301.26345197
505.20000000 301.21750448
505.50000000 301.18440256
505.80000000 301.16460871
506.10000000 301.15593925
506.40000000 301.15391648
506.70000000 301.15261633
507.00000000 301.14589245
507.30000000 301.12875825
507.60000000 301.09857826
507.90000000 301.05581316
508.20000000 301.00418035
508.50000000 300.95008063
508.80000000 300.90131033
509.10000000 300.86532249
509.40000000 300.84743762
509.70000000 300.84946572
510.00000000 300.86916953
510.30000000 300.90069628
510.60000000 300.93585948
510.90000000 300.96587026
511.20000000 300.98301848
511.50000000 300.98185678
511.80000000 300.95970712
512.10000000 300.91661475
512.40000000 300.85489441
512.70000000 300.77851266
513.00000000 300.69245693
513.30000000 300.60210540
513.60000000 300.51260573
513.90000000 300.42824604
514.20000000 300.35182186
514.50000000 300.28403990
514.80000000 300.22313180
515.10000000 300.16491089
515.40000000 300.10335838
515.70000000 300.03172028
516.00000000 299.94395942
516.30000000 299.83621457
516.60000000 299.70798409
516.90000000 299.56276517
517.20000000 299.40790280
517.50000000 299.25361029
517.80000000 299.11122197
518.10000000 298.99096890
518.40000000 298.89980012
518.70000000 298.83979650
519.00000000 298.80761743
519.30000000 298.79520820
519.60000000 298.79162471
519.90000000 298.78542268
520.20000000 298.76696363
520.50000000 298.73006776
520.80000000 298.67265304
521.10000000 298.59637450
521.40000000 298.50561129
521.70000000 298.40626400
522.00000000 298.30461083
522.30000000 298.20634989
522.60000000 298.11592518
522.90000000 298.03600797
523.20000000 297.96706568
523.50000000 297.90711793
523.80000000 297.85178718
524.10000000 297.79477905
524.40000000 297.72878518
524.70000000 297.64672674
525.00000000 297.54315572
525.30000000 297.41552446
525.60000000 297.26503583
525.90000000 297.09683805
526.20000000 296.91948234
526.50000000 296.74367321
526.80000000 296.58046870
527.10000000 296.43931076
527.40000000 296.32623963
527.70000000 296.24263426
528.00000000 296.18487434
528.30000000 296.14510640
528.60000000 296.11298975
528.90000000 296.07811327
529.20000000 296.03243690
529.50000000 295.97203852
529.80000000 295.89775125
530.10000000 295.81461765
530.40000000 295.73044433
530.70000000 295.65396774
531.00000000 295.59313494
531.30000000 295.55372626
531.60000000 295.53845567
531.90000000 295.54660024
532.20000000 295.57401312
532.50000000 295.61354189
532.80000000 295.65588543
533.10000000 295.69084232
533.40000000 295.70881801
533.70000000 295.70232377
534.00000000 295.66726012
534.30000000 295.60367685
534.60000000 295.51580577
534.90000000 295.41131575
535.20000000 295.29988792
535.50000000 295.19139178
535.80000000 295.09407617
536.10000000 295.01318951
536.40000000 294.95026174
536.70000000 294.90313783
537.00000000 294.86672890
537.30000000 294.83426987
537.60000000 294.79881139
537.90000000 294.75472283
538.20000000 294.69896782
538.50000000 294.63183452
538.80000000 294.55692675
539.10000000 294.48050040
539.40000000 294.41038399
539.70000000 294.35471779
540.00000000 294.32076467
540.30000000 294.31389762
540.60000000 294.33683494
540.90000000 294.38911514
541.20000000 294.46688155
541.50000000 294.56324864
541.80000000 294.66925470
542.10000000 294.77530536
542.40000000 294.87287088
542.70000000 294.95596168
543.00000000 295.02216440
543.30000000 295.07295063
543.60000000 295.11308156
543.90000000 295.14940395
544.20000000 295.18920260
544.50000000 295.23842658
544.80000000 295.30030428
545.10000000 295.37464087
545.40000000 295.45795996
545.70000000 295.54448012
546.00000000 295.62755098
546.30000000 295.70112663
546.60000000 295.76098377
546.90000000 295.80542062
547.20000000 295.83535745
547.50000000 295.85398997
547.80000000 295.86613541
548.10000000 295.87742518
548.40000000 295.89357661
548.70000000 295.91984297
549.00000000 295.96060619
549.30000000 296.01908867
549.60000000 296.09708736
549.90000000 296.19465780
550.20000000 296.30985359
550.50000000 296.43876384
550.80000000 296.57606001
551.10000000 296.71601302
551.40000000 296.85386871
551.70000000 296.98717359
552.00000000 297.11654609
552.30000000 297.24559275
552.60000000 297.37993787
552.90000000 297.52559129
553.20000000 297.68704115
553.50000000 297.86568939
553.80000000 298.05904944
554.10000000 298.26093344
554.40000000 298.46263241
554.70000000 298.65474146
555.00000000 298.82915021
555.30000000 298.98066026
555.60000000 299.10770640
555.90000000 299.21208174
556.20000000 299.29796593
556.50000000 299.37061818
556.80000000 299.43516188
557.10000000 299.49572825
557.40000000 299.55503879
557.70000000 299.61437535
558.00000000 299.67379445
558.30000000 299.73244016
558.60000000 299.78888830
558.90000000 299.84143110
559.20000000 299.88832136
559.50000000 299.92806687
559.80000000 299.95976956
560.10000000 299.98355292
560.40000000 300.00093687
560.70000000 300.01499879
561.00000000 300.03024332
561.30000000 300.05212589
561.60000000 300.08620042
561.90000000 300.13696508
562.20000000 300.20672452
562.50000000 300.29473999
562.80000000 300.39699744
563.10000000 300.50680328
563.40000000 300.61608621
563.70000000 300.71713188
564.00000000 300.80424464
564.30000000 300.87479812
564.60000000 300.92937185
564.90000000 300.97096599
565.20000000 301.00362742
565.50000000 301.03100567
565.80000000 301.05534220
566.10000000 301.07712759
566.40000000 301.09535122
566.70000000 301.10807639
567.00000000 301.11300835
567.30000000 301.10792961
567.60000000 301.09089583
567.90000000 301.06024625
568.20000000 301.01466661
568.50000000 300.95338442
568.80000000 300.87656740
569.10000000 300.78578483
569.40000000 300.68428268
569.70000000 300.57687133
570.00000000 300.46930894
570.30000000 300.36730697
570.60000000 300.27539906
570.90000000 300.19602510
571.20000000 300.12907374
571.50000000 300.07197866
571.80000000 300.02045337
572.10000000 299.96964237
572.40000000 299.91538477
572.70000000 299.85533880
573.00000000 299.78967509
573.30000000 299.72109275
573.60000000 299.65415170
573.90000000 299.59398511
574.20000000 299.54472624
574.50000000 299.50819745
574.80000000 299.48323532
575.10000000 299.46582555
575.40000000 299.45004268
575.70000000 299.42941853
576.00000000 299.39825723
576.30000000 299.35259657
576.60000000 299.29054749
576.90000000 299.21206145
577.20000000 299.11839088
577.50000000 299.01157628
577.80000000 298.89418674
578.10000000 298.76928613
578.40000000 298.64046011
578.70000000 298.51166173
579.00000000 298.38668438
579.30000000 298.26831236
579.60000000 298.15745892
579.90000000 298.05270389
580.20000000 297.95048305
580.50000000 297.84602181
580.80000000 297.73481543
581.10000000 297.61416518
581.40000000 297.48433936
581.70000000 297.34896715
582.00000000 297.21448432
582.30000000 297.08893000
582.60000000 296.98045149
582.90000000 296.89583378
583.20000000 296.83933900
583.50000000 296.81198202
583.80000000 296.81135059
584.10000000 296.83199450
584.40000000 296.86630685
584.70000000 296.90584603
585.00000000 296.94285260
585.30000000 296.97156448
585.60000000 296.98903217
585.90000000 296.99530015
586.20000000 296.99297584
586.50000000 296.98633591
586.80000000 296.98031835
587.10000000 296.97965767
587.40000000 296.98820299
587.70000000 297.00841161
588.00000000 297.04085677
588.30000000 297.08377792
588.60000000 297.13290209
588.90000000 297.18165505
589.20000000 297.22198133
589.50000000 297.24585137
589.80000000 297.24709412
590.10000000 297.22302449
590.40000000 297.17536675
590.70000000 297.11011185
591.00000000 297.03638085
591.30000000 296.96467146
591.60000000 296.90494997
591.90000000 296.86504933
592.20000000 296.84972541
592.50000000 296.86040731
592.80000000 296.89548381
593.10000000 296.95092699
593.40000000 297.02109252
593.70000000 297.09957601
594.00000000 297.18005244
594.30000000 297.25704718
594.60000000 297.32660100
594.90000000 297.38683189
595.20000000 297.43827498
595.50000000 297.48390492
595.80000000 297.52878125
596.10000000 297.57924390
596.40000000 297.64169164
596.70000000 297.72116961
597.00000000 297.81999096
597.30000000 297.93668125
597.60000000 298.06561898
597.90000000 298.19755886
598.20000000 298.32106731
598.50000000 298.42465497
598.80000000 298.49916792
599.10000000 298.53978005
599.40000000 298.54690877
599.70000000 298.52582623
600.00000000 298.48511687
600.30000000 298.43448242
600.60000000 298.38266665
600.90000000 298.33602158
601.20000000 298.29789467
601.50000000 298.26880142
601.80000000 298.24710529
602.10000000 298.22994243
602.40000000 298.21414408
602.70000000 298.19693759
603.00000000 298.17631382
603.30000000 298.15114675
603.60000000 298.12113624
603.90000000 298.08669284
604.20000000 298.04895490
604.50000000 298.00995209
604.80000000 297.97279604
605.10000000 297.94164184
605.40000000 297.92131213
605.70000000 297.91651472
606.00000000 297.93074373
606.30000000 297.96516892
606.60000000 298.01786414
606.90000000 298.08376240
607.20000000 298.15540323
607.50000000 298.22432735
607.80000000 298.28281591
608.10000000 298.32540343
608.40000000 298.34971883
608.70000000 298.35639877
609.00000000 298.34817629
609.30000000 298.32861096
609.60000000 298.30094456
609.90000000 298.26741686
610.20000000 298.22910294
610.50000000 298.18613556
610.80000000 298.13810942
611.10000000 298.08446620
611.40000000 298.02478973
611.70000000 297.95899971
612.00000000 297.88744959
612.30000000 297.81089225
612.60000000 297.73034018
612.90000000 297.64691359
613.20000000 297.56171472
613.50000000 297.47580689
613.80000000 297.39031574
614.10000000 297.30653869
614.40000000 297.22601344
614.70000000 297.15049710
615.00000000 297.08180054
615.30000000 297.02154572
615.60000000 296.97096031
615.90000000 296.93074199
616.20000000 296.90110293
616.50000000 296.88200757
616.80000000 296.87334771
617.10000000 296.87496770
617.40000000 296.88647912
617.70000000 296.90687074
618.00000000 296.93408778
618.30000000 296.96484483
618.60000000 296.99485910
618.90000000 297.01955320
619.20000000 297.03508980
619.50000000 297.03930537
619.80000000 297.03214670
620.10000000 297.01548923
620.40000000 296.99233305
620.70000000 296.96576186
621.00000000 296.93808521
621.30000000 296.91029097
621.60000000 296.88201275
621.90000000 296.85191918
622.20000000 296.81831594
622.50000000 296.77967854
622.80000000 296.73494263
623.10000000 296.68361047
623.40000000 296.62572957
623.70000000 296.56182336
624.00000000 296.49288077
624.30000000 296.42051455
624.60000000 296.34717253
624.90000000 296.27624830
625.20000000 296.21206076
625.50000000 296.15956680
625.80000000 296.12374038
626.10000000 296.10872381
626.40000000 296.11689461
626.70000000 296.14813445
627.00000000 296.19957874
627.30000000 296.26591139
627.60000000 296.34020442
627.90000000 296.41521065
628.20000000 296.48475712
628.50000000 296.54501227
628.80000000 296.59530206
629.10000000 296.63810840
629.40000000 296.67827711
629.70000000 296.72158774
630.00000000 296.77306749
630.30000000 296.83554264
630.60000000 296.90881926
630.90000000 296.98966111
631.20000000 297.07249991
631.50000000 297.15061760
631.80000000 297.21743823
632.10000000 297.26757871
632.40000000 297.29748693
632.70000000 297.30568097
633.00000000 297.29266605
633.30000000 297.26067486
633.60000000 297.21341563
633.90000000 297.15591482
634.20000000 297.09431836
634.50000000 297.03547499
634.80000000 296.98621442
635.10000000 296.95236343
635.40000000 296.93764912
635.70000000 296.94287934
636.00000000 296.96573126
636.30000000 297.00120629
636.60000000 297.04272478
636.90000000 297.08360645
637.20000000 297.11852882
637.50000000 297.14461915
637.80000000 297.16196673
638.10000000 297.17355784
638.40000000 297.18464524
638.70000000 297.20171429
639.00000000 297.23125534
639.30000000 297.27847093
639.60000000 297.34617321
639.90000000 297.43407351
640.20000000 297.53864220
640.50000000 297.65360048
640.80000000 297.77091778
641.10000000 297.88216278
641.40000000 297.97980365
641.70000000 298.05816545
642.00000000 298.11399873
642.30000000 298.14666183
642.60000000 298.15799895
642.90000000 298.15197025
643.20000000 298.13410666
643.50000000 298.11073399
643.80000000 298.08800184
644.10000000 298.07088557
644.40000000 298.06239265
644.70000000 298.06316319
645.00000000 298.07151745
645.30000000 298.08394774
645.60000000 298.09599063
645.90000000 298.10329194
646.20000000 298.10267963
646.50000000 298.09305047
646.80000000 298.07576202
647.10000000 298.05438766
647.40000000 298.03400286
647.70000000 298.02024355
648.00000000 298.01842226
648.30000000 298.03282256
648.60000000 298.06622535
648.90000000 298.11969629
649.20000000 298.19248653
649.50000000 298.28206506
649.80000000 298.38440467
650.10000000 298.49448431
650.40000000 298.60694893
650.70000000 298.71681425
651.00000000 298.82003810
651.30000000 298.91392831
651.60000000 298.99732327
651.90000000 299.07050190
652.20000000 299.13488152
652.50000000 299.19255126
652.80000000 299.24566241
653.10000000 299.29582184
653.40000000 299.34364961
653.70000000 299.38860588
654.00000000 299.42913116
654.30000000 299.46300266
654.60000000 299.48780666
654.90000000 299.50148683
655.20000000 299.50289661
655.50000000 299.49219885
655.80000000 299.47098627
656.10000000 299.44209150
656.40000000 299.40907556
656.70000000 299.37550927
657.00000000 299.34433477
657.30000000 299.31750783
657.60000000 299.29601403
657.90000000 299.28024888
658.20000000 299.27050272
658.50000000 299.26733538
658.80000000 299.27170328
659.10000000 299.28486725
659.40000000 299.30816164
659.70000000 299.34272126
660.00000000 299.38926972
660.30000000 299.44798300
660.60000000 299.51841273
660.90000000 299.59947185
661.20000000 299.68943076
661.50000000 299.78593283
661.80000000 299.88615993
662.10000000 299.98710908
662.40000000 300.08593084
662.70000000 300.18029404
663.00000000 300.26862177
663.30000000 300.35012260
663.60000000 300.42466793
663.90000000 300.49251159
664.20000000 300.55392280
664.50000000 300.60895256
664.80000000 300.65738894
665.10000000 300.69886113
665.40000000 300.73308205
665.70000000 300.76002647
666.00000000 300.77992816
666.30000000 300.79317843
666.60000000 300.80012029
666.90000000 300.80087285
667.20000000 300.79534524
667.50000000 300.78351563
667.80000000 300.76588969
668.10000000 300.74388248
668.40000000 300.71997263
668.70000000 300.69759870
669.00000000 300.68079463
669.30000000 300.67362827
669.60000000 300.67959180
669.90000000 300.70105361
670.20000000 300.73883612
670.50000000 300.79204001
670.80000000 300.85813469
671.10000000 300.93336105
671.40000000 301.01342846
671.70000000 301.09425956
672.00000000 301.17263647
672.30000000 301.24659713
672.60000000 301.31543193
672.90000000 301.37931115
673.20000000 301.43876082
673.50000000 301.49410058
673.80000000 301.54500137
674.10000000 301.59036707
674.40000000 301.62843061
674.70000000 301.65703622
675.00000000 301.67401154
675.30000000 301.67748685
675.60000000 301.66615149
675.90000000 301.63938653
676.20000000 301.59720071
676.50000000 301.54000835
676.80000000 301.46840311
677.10000000 301.38309493
677.40000000 301.28504049
677.70000000 301.17565326
678.00000000 301.05703349
678.30000000 300.93207944
678.60000000 300.80436330
678.90000000 300.67773681
679.20000000 300.55572088
679.50000000 300.44087622
679.80000000 300.33436857
680.10000000 300.23590043
680.40000000 300.14410857
680.70000000 300.05731305
681.00000000 299.97431337
681.30000000 299.89492890
681.60000000 299.82005662
681.90000000 299.75122292
682.20000000 299.68983237
682.50000000 299.63647593
682.80000000 299.59053693
683.10000000 299.55013200
683.40000000 299.51240310
683.70000000 299.47392565
684.00000000 299.43112853
684.30000000 299.38080560
684.60000000 299.32055981
684.90000000 299.24910402
685.20000000 299.16637455
685.50000000 299.07329461
685.80000000 298.97124552
686.10000000 298.86145274
686.40000000 298.74450290
686.70000000 298.62018944
687.00000000 298.48775748
687.30000000 298.34637233
687.60000000 298.19558710
687.90000000 298.03568683
688.20000000 297.86773895
688.50000000 297.69337485
688.80000000 297.51442871
689.10000000 297.33264309
689.40000000 297.14963482
689.70000000 296.96710069
690.00000000 296.78716402
690.30000000 296.61269520
690.60000000 296.44727026
690.90000000 296.29468025
691.20000000 296.15817244
691.50000000 296.03963974
691.80000000 295.93919960
692.10000000 295.85531582
692.40000000 295.78521956
692.70000000 295.72551076
693.00000000 295.67275587
693.30000000 295.62395308
693.60000000 295.57695599
693.90000000 295.53088104
694.20000000 295.48633981
694.50000000 295.44531489
694.80000000 295.41063536
695.10000000 295.38507192
695.40000000 295.37029114
695.70000000 295.36605907
696.00000000 295.36995561
696.30000000 295.37767715
696.60000000 295.38387448
696.90000000 295.38320220
697.20000000 295.37127134
697.50000000 295.34530222
697.80000000 295.30437666
698.10000000 295.24940391
698.40000000 295.18291286
698.70000000 295.10880352
699.00000000 295.03206886
699.30000000 294.95840777
699.60000000 294.89364941
699.90000000 294.84294269
700.20000000 294.80987634
700.50000000 294.79590335
700.80000000 294.80028190
701.10000000 294.82045756
701.40000000 294.85279811
701.70000000 294.89347061
702.00000000 294.93915688
702.30000000 294.98753204
702.60000000 295.03753632
702.90000000 295.08950186
703.20000000 295.14524890
703.50000000 295.20805577
703.80000000 295.28231614
704.10000000 295.37283117
704.40000000 295.48376275
704.70000000 295.61743295
705.00000000 295.77340139
705.30000000 295.94812522
705.60000000 296.13535394
705.90000000 296.32718721
706.20000000 296.51546244
706.50000000 296.69310684
706.80000000 296.85510650
707.10000000 296.99891706
707.40000000 297.12435450
707.70000000 297.23317748
708.00000000 297.32856345
708.30000000 297.41452572
708.60000000 297.49533988
708.90000000 297.57499169
709.20000000 297.65666948
709.50000000 297.74234528
709.80000000 297.83255053
710.10000000 297.92637382
710.40000000 298.02164737
710.70000000 298.11526644
711.00000000 298.20358812
711.30000000 298.28298575
711.60000000 298.35058966
711.90000000 298.40512218
712.20000000 298.44764062
712.50000000 298.48191267
712.80000000 298.51421696
713.10000000 298.55246814
713.40000000 298.60480058
713.70000000 298.67793440
714.00000000 298.77573326
714.30000000 298.89836237
714.60000000 299.04228659
714.90000000 299.20109309
715.20000000 299.36686669
715.50000000 299.53170939
715.80000000 299.68899509
716.10000000 299.83405647
716.40000000 299.96426131
716.70000000 300.07870324
717.00000000 300.17780324
717.30000000 300.26299426
717.60000000 300.33648901
717.90000000 300.40106045
718.20000000 300.45972659
718.50000000 300.51528943
718.80000000 300.56979307
719.10000000 300.62402209
719.40000000 300.67721717
719.70000000 300.72705780
720.00000000 300.76994629
720.30000000 300.80160627
720.60000000 300.81781461
720.90000000 300.81521990
721.20000000 300.79223618
721.50000000 300.74979454
721.80000000 300.69162543
722.10000000 300.62385710
722.40000000 300.55393160
722.70000000 300.48911950
723.00000000 300.43513485
723.30000000 300.39525362
723.60000000 300.37010657
723.90000000 300.35812541
724.20000000 300.35642692
724.50000000 300.36176648
724.80000000 300.37123993
725.10000000 300.38256971
725.40000000 300.39397922
725.70000000 300.40386494
726.00000000 300.41050176
726.30000000 300.41206483
726.60000000 300.40709066
726.90000000 300.39511653
727.20000000 300.37720215
727.50000000 300.35600751
727.80000000 300.33525731
728.10000000 300.31877677
728.40000000 300.30936504
728.70000000 300.30790049
729.00000000 300.31299338
729.30000000 300.32115412
729.60000000 300.32746254
729.90000000 300.32654125
730.20000000 300.31353360
730.50000000 300.28496037
730.80000000 300.23928030
731.10000000 300.17697538
731.40000000 300.10018410
731.70000000 300.01205575
732.00000000 299.91604291
732.30000000 299.81541121
732.60000000 299.71311554
732.90000000 299.61194186
733.20000000 299.51471816
733.50000000 299.42440019
733.80000000 299.34392975
734.10000000 299.27580625
734.40000000 299.22141113
734.70000000 299.18035078
735.00000000 299.15013003
735.30000000 299.12635318
735.60000000 299.10359342
735.90000000 299.07681675
736.20000000 299.04288098
736.50000000 299.00153058
736.80000000 298.95545945
737.10000000 298.90948549
737.40000000 298.86922354
737.70000000 298.83972638
738.00000000 298.82450252
738.30000000 298.82505298
738.60000000 298.84086133
738.90000000 298.86960179
739.20000000 298.90742274
739.50000000 298.94932183
739.80000000 298.98950923
740.10000000 299.02186524
740.40000000 299.04058662
740.70000000 299.04092373
741.00000000 299.01997196
741.30000000 298.97733941
741.60000000 298.91545606
741.90000000 298.83946119
742.20000000 298.75659728
742.50000000 298.67515246
742.80000000 298.60318831
743.10000000 298.54723230
743.40000000 298.51116194
743.70000000 298.49546745
744.00000000 298.49702637
744.30000000 298.50951212
744.60000000 298.52448827
744.90000000 298.53315396
745.20000000 298.52836205
745.50000000 298.50631541
745.80000000 298.46746368
746.10000000 298.41638635
746.40000000 298.36078550
746.70000000 298.30997778
747.00000000 298.27338095
747.30000000 298.25929506
747.60000000 298.27399242
747.90000000 298.32101520
748.20000000 298.40056573
748.50000000 298.50911636
748.80000000 298.63949448
749.10000000 298.78156129
749.40000000 298.92356286
749.70000000 299.05403729
750.00000000 299.16383830
750.30000000 299.24782366
750.60000000 299.30578083
750.90000000 299.34229785
751.20000000 299.36563042
751.50000000 299.38582827
751.80000000 299.41255334
752.10000000 299.45315133
752.40000000 299.51138209
752.70000000 299.58695932
753.00000000 299.67588002
753.30000000 299.77137333
753.60000000 299.86520347
753.90000000 299.94909250
754.20000000 300.01604001
754.50000000 300.06134725
754.80000000 300.08323679
755.10000000 300.08310961
755.40000000 300.06540222
755.70000000 300.03716974
756.00000000 300.00754570
756.30000000 299.98694846
756.60000000 299.98601389
756.90000000 300.01427662
757.20000000 300.07863054
757.50000000 300.18186314
757.80000000 300.32171885
758.10000000 300.49094711
758.40000000 300.67850750
758.70000000 300.87172052
759.00000000 301.05888794
759.30000000 301.23165761
759.60000000 301.38651571
759.90000000 301.52506996
760.20000000 301.65310055
760.50000000 301.77870813
760.80000000 301.91009042
761.10000000 302.05356615
761.40000000 302.21231750
761.70000000 302.38604380
762.00000000 302.57136899
762.30000000 302.76270746
762.60000000 302.95337200
762.90000000 303.13662643
763.20000000 303.30645025
763.50000000 303.45803057
763.80000000 303.58800311
764.10000000 303.69455501
764.40000000 303.77757854
764.70000000 303.83890423
765.00000000 303.88248172
765.30000000 303.91430546
765.60000000 303.94188449
765.90000000 303.97321645
766.20000000 304.01540172
766.50000000 304.07322921
766.80000000 304.14820096
767.10000000 304.23831776
767.40000000 304.33880943
767.70000000 304.44366703
768.00000000 304.54742803
768.30000000 304.64667516
768.60000000 304.74082874
768.90000000 304.83199774
769.20000000 304.92404848
769.50000000 305.02126620
769.80000000 305.12709345
770.10000000 305.24332631
770.40000000 305.36997131
770.70000000 305.50563870
771.00000000 305.64820096
771.30000000 305.79542010
771.60000000 305.94516198
771.90000000 306.09525049
772.20000000 306.24321345
772.50000000 306.38607259
772.80000000 306.52036015
773.10000000 306.64241016
773.40000000 306.74880507
773.70000000 306.83691275
774.00000000 306.90534619
774.30000000 306.95421175
774.60000000 306.98504167
774.90000000 307.00037921
775.20000000 307.00308599
775.50000000 306.99561251
775.80000000 306.97956240
776.10000000 306.95569857
776.40000000 306.92446738
776.70000000 306.88677227
777.00000000 306.84459929
777.30000000 306.80121947
777.60000000 306.76076779
777.90000000 306.72732375
778.20000000 306.70382363
778.50000000 306.69120474
778.80000000 306.68816205
779.10000000 306.69167333
779.40000000 306.69813322
779.70000000 306.70467823
780.00000000 306.71025917
780.30000000 306.71607869
780.60000000 306.72522194
780.90000000 306.74161599
781.20000000 306.76865486
781.50000000 306.80809073
781.80000000 306.85954266
782.10000000 306.92062918
782.40000000 306.98761475
782.70000000 307.05616001
783.00000000 307.12189899
783.30000000 307.18078671
783.60000000 307.22914566
783.90000000 307.26359558
784.20000000 307.28112770
784.50000000 307.27932591
784.80000000 307.25678620
785.10000000 307.21371259
785.40000000 307.15240060
785.70000000 307.07740247
786.00000000 306.99515345
786.30000000 306.91298238
786.60000000 306.83774324
786.90000000 306.77431698
787.20000000 306.72442415
787.50000000 306.68618375
787.80000000 306.65455423
788.10000000 306.62262163
788.40000000 306.58347351
788.70000000 306.53213530
789.00000000 306.46708989
789.30000000 306.39104267
789.60000000 306.31060609
789.90000000 306.23494764
790.20000000 306.17381701
790.50000000 306.13543409
790.80000000 306.12485006
791.10000000 306.14325088
791.40000000 306.18816636
791.70000000 306.25434032
792.00000000 306.33487216
792.30000000 306.42221478
792.60000000 306.50889278
792.90000000 306.58804625
793.20000000 306.65400083
793.50000000 306.70287885
793.80000000 306.73317570
794.10000000 306.74610154
794.40000000 306.74547605
794.70000000 306.73709822
795.00000000 306.72762048
795.30000000 306.72312212
795.60000000 306.72769695
795.90000000 306.74239455
796.20000000 306.76477982
796.50000000 306.78930184
796.80000000 306.80841235
797.10000000 306.81416418
797.40000000 306.79993915
797.70000000 306.76190727
798.00000000 306.69993636
798.30000000 306.61781710
798.60000000 306.52279092
798.90000000 306.42445700
799.20000000 306.33322390
799.50000000 306.25863078
799.80000000 306.20786222
800.10000000 306.18472837
800.40000000 306.18937550
800.70000000 306.21865273
801.00000000 306.26684110
801.30000000 306.32664576
801.60000000 306.39030131
801.90000000 306.45065890
802.20000000 306.50226870
802.50000000 306.54228588
802.80000000 306.57098219
803.10000000 306.59170438
803.40000000 306.61012161
803.70000000 306.63286815
804.00000000 306.66591482
804.30000000 306.71303134
804.60000000 306.77468849
804.90000000 306.84768210
805.20000000 306.92558615
805.50000000 306.99995082
805.80000000 307.06197119
806.10000000 307.10414229
806.40000000 307.12149959
806.70000000 307.11227041
807.00000000 307.07792207
807.30000000 307.02271928
807.60000000 306.95292690
807.90000000 306.87579060
808.20000000 306.79843795
808.50000000 306.72687277
808.80000000 306.66520075
809.10000000 306.61520519
809.40000000 306.57629864
809.70000000 306.54580301
810.00000000 306.51951719
810.30000000 306.49249017
810.60000000 306.46007778
810.90000000 306.41909391
811.20000000 306.36876587
811.50000000 306.31132772
811.80000000 306.25196985
812.10000000 306.19807519
812.40000000 306.15781900
812.70000000 306.13839485
813.00000000 306.14433372
813.30000000 306.17633701
813.60000000 306.23093168
813.90000000 306.30105788
814.20000000 306.37748430
814.50000000 306.45076102
814.80000000 306.51309798
815.10000000 306.55967030
815.40000000 306.58913633
815.70000000 306.60326710
816.00000000 306.60598481
816.30000000 306.60221240
816.60000000 306.59678555
816.90000000 306.59360566
817.20000000 306.59506455
817.50000000 306.60167907
817.80000000 306.61199782
818.10000000 306.62281417
818.40000000 306.62966642
818.70000000 306.62756794
819.00000000 306.61179052
819.30000000 306.57861468
819.60000000 306.52601523
819.90000000 306.45422190
820.20000000 306.36612272
820.50000000 306.26733904
820.80000000 306.16574879
821.10000000 306.07043386
821.40000000 305.99014042
821.70000000 305.93158536
822.00000000 305.89808004
822.30000000 305.88878584
822.60000000 305.89892271
822.90000000 305.92092445
823.20000000 305.94624235
823.50000000 305.96737700
823.80000000 305.97950643
824.10000000 305.98122761
824.40000000 305.97437273
824.70000000 305.96317365
825.00000000 305.95306569
825.30000000 305.94949325
825.60000000 305.95694873
825.90000000 305.97824397
826.20000000 306.01403432
826.50000000 306.06253786
826.80000000 306.11950892
827.10000000 306.17860217
827.40000000 306.23210829
827.70000000 306.27207228
828.00000000 306.29160435
828.30000000 306.28610857
828.60000000 306.25418781
828.90000000 306.19797005
829.20000000 306.12276375
829.50000000 306.03615460
829.80000000 305.94669822
830.10000000 305.86240259
830.40000000 305.78931803
830.70000000 305.73045738
831.00000000 305.68534716
831.30000000 305.65034098
831.60000000 305.61953205
831.90000000 305.58621513
832.20000000 305.54458805
832.50000000 305.49114798
832.80000000 305.42551852
833.10000000 305.35050180
833.40000000 305.27133594
833.70000000 305.19449766
834.00000000 305.12642854
834.30000000 305.07252257
834.60000000 305.03657741
834.90000000 305.02058500
835.20000000 305.02466080
835.50000000 305.04703767
835.80000000 305.08410365
836.10000000 305.13054133
836.40000000 305.17977773
836.70000000 305.22481250
837.00000000 305.25931627
837.30000000 305.27879448
837.60000000 305.28146451
837.90000000 305.26853804
838.20000000 305.24372648
838.50000000 305.21209984
838.80000000 305.17860450
839.10000000 305.14662708
839.40000000 305.11702670
839.70000000 305.08787073
840.00000000 305.05491942
840.30000000 305.01275465
840.60000000 304.96181657
840.90000000 304.89333644
841.20000000 304.80642252
841.50000000 304.70292214
841.80000000 304.58694910
842.10000000 304.46397255
842.40000000 304.33978083
842.70000000 304.21953295
843.00000000 304.10707429
843.30000000 304.00467704
843.60000000 303.91310244
843.90000000 303.83193390
844.20000000 303.76010806
844.50000000 303.69638443
844.80000000 303.63966155
845.10000000 303.58911317
845.40000000 303.54413640
845.70000000 303.50434677
846.00000000 303.46977728
846.30000000 303.44114774
846.60000000 303.41997582
846.90000000 303.40835709
847.20000000 303.40835646
847.50000000 303.42115174
847.80000000 303.44619850
848.10000000 303.48069196
848.40000000 303.51957355
848.70000000 303.55613035
849.00000000 303.58307031
849.30000000 303.59388124
849.60000000 303.58418606
849.90000000 303.55272795
850.20000000 303.50165808
850.50000000 303.43598574
850.80000000 303.36235517
851.10000000 303.28752032
851.40000000 303.21691331
851.70000000 303.15366311
852.00000000 303.09819287
852.30000000 303.04845278
852.60000000 303.00065640
852.90000000 302.95030067
853.20000000 302.89333373
853.50000000 302.82721135
853.80000000 302.75165703
854.10000000 302.66897618
854.40000000 302.58385945
854.70000000 302.50278929
855.00000000 302.43312590
855.30000000 302.38210755
855.60000000 302.35583461
855.90000000 302.35834169
856.20000000 302.39094846
856.50000000 302.45189971
856.80000000 302.53645893
857.10000000 302.63754390
857.40000000 302.74674276
857.70000000 302.85557310
858.00000000 302.95678926
858.30000000 303.04548602
858.60000000 303.11983883
858.90000000 303.18135076
859.20000000 303.23444957
859.50000000 303.28543474
859.80000000 303.34103376
860.10000000 303.40689102
860.40000000 303.48625467
860.70000000 303.57913893
861.00000000 303.68213132
861.30000000 303.78883305
861.60000000 303.89087478
861.90000000 303.97938383
862.20000000 304.04658770
862.50000000 304.08729168
862.80000000 304.09999139
863.10000000 304.08729194
863.40000000 304.05565885
863.70000000 304.01457615
864.00000000 303.97522897
864.30000000 303.94890428
864.60000000 303.94530298
864.90000000 303.97107336
865.20000000 304.02882935
865.50000000 304.11683482
865.80000000 304.22947601
866.10000000 304.35842961
866.40000000 304.49429327
866.70000000 304.62832429
867.00000000 304.75391452
867.30000000 304.86763158
867.60000000 304.96961431
867.90000000 305.06336961
868.20000000 305.15503150
868.50000000 305.25208914
868.80000000 305.36184123
869.10000000 305.48982848
869.40000000 305.63849940
869.70000000 305.80642365
870.00000000 305.98821014
870.30000000 306.17507308
870.60000000 306.35603101
870.90000000 306.51952137
871.20000000 306.65513615
871.50000000 306.75527660
871.80000000 306.81642786
872.10000000 306.83977922
872.40000000 306.83105102
872.70000000 306.79952806
873.00000000 306.75645838
873.30000000 306.71311955
873.60000000 306.67891303
873.90000000 306.65987173
874.20000000 306.65787172
874.50000000 306.67065126
874.80000000 306.69262429
875.10000000 306.71626930
875.40000000 306.73380722
875.70000000 306.73880693
876.00000000 306.72737884
876.30000000 306.69886676
876.60000000 306.65604693
876.90000000 306.60482364
877.20000000 306.55341844
877.50000000 306.51119211
877.80000000 306.48713281
878.10000000 306.48820528
878.40000000 306.51794478
878.70000000 306.57559269
879.00000000 306.65602036
879.30000000 306.75041926
879.60000000 306.84756097
879.90000000 306.93544760
880.20000000 307.00304800
880.50000000 307.04183618
880.80000000 307.04696672
881.10000000 307.01792627
881.40000000 306.95848675
881.70000000 306.87589340
882.00000000 306.77937423
882.30000000 306.67824527
882.60000000 306.58008651
882.90000000 306.48933984
883.20000000 306.40669010
883.50000000 306.32934204
883.80000000 306.25199594
884.10000000 306.16829585
884.40000000 306.07236089
884.70000000 305.96001607
885.00000000 305.82958212
885.30000000 305.68213141
885.60000000 305.51529098
885.90000000 305.33955020
886.20000000 305.16187628
886.50000000 304.99000071
886.80000000 304.83157561
887.10000000 304.69319132
887.40000000 304.57932257
887.70000000 304.49152689
888.00000000 304.42812214
888.30000000 304.38447274
888.60000000 304.35393782
888.90000000 304.32914295
889.20000000 304.30325224
889.50000000 304.27103675
889.80000000 304.22954899
890.10000000 304.17836085
890.40000000 304.11939375
890.70000000 304.05627827
891.00000000 303.99334907
891.30000000 303.93447425
891.60000000 303.88196788
891.90000000 303.83584018
892.20000000 303.79359994
892.50000000 303.75072696
892.80000000 303.70168423
893.10000000 303.64121330
893.40000000 303.56556664
893.70000000 303.47333511
894.00000000 303.36567258
894.30000000 303.24592156
894.60000000 303.11884656
894.90000000 302.98971025
895.20000000 302.86342844
895.50000000 302.74398973
895.80000000 302.63410257
896.10000000 302.53509457
896.40000000 302.44705689
896.70000000 302.36907270
897.00000000 302.29957334
897.30000000 302.23675843
897.60000000 302.17902686
897.90000000 302.12541065
898.20000000 302.07589756
898.50000000 302.03153858
898.80000000 301.99432129
899.10000000 301.96686081
899.40000000 301.95192495
899.70000000 301.95186099
900.00000000 301.96803287
900.30000000 302.00035131
900.60000000 302.04701765
900.90000000 302.10458253
901.20000000 302.16835422
901.50000000 302.23313262
901.80000000 302.29411710
902.10000000 302.34775756
902.40000000 302.39245872
902.70000000 302.42894422
903.00000000 302.46004855
903.30000000 302.49001726
903.60000000 302.52344126
903.90000000 302.56408018
904.20000000 302.61395765
904.50000000 302.67286837
904.80000000 302.73840421
905.10000000 302.80646290
905.40000000 302.87204421
905.70000000 302.93024689
906.00000000 302.97727209
906.30000000 303.01120042
906.60000000 303.03249248
906.90000000 303.04404458
907.20000000 303.05071341
907.50000000 303.05849526
907.80000000 303.07351009
908.10000000 303.10106136
908.40000000 303.14489310
908.70000000 303.20669700
909.00000000 303.28593304
909.30000000 303.37994694
909.60000000 303.48438736
909.90000000 303.59390116
910.20000000 303.70301502
910.50000000 303.80710852
910.80000000 303.90327896
911.10000000 303.99090817
911.40000000 304.07175712
911.70000000 304.14956471
912.00000000 304.22925066
912.30000000 304.31581875
912.60000000 304.41327301
912.90000000 304.52373128
913.20000000 304.64694084
913.50000000 304.78032854
913.80000000 304.91943117
914.10000000 305.05862515
914.40000000 305.19198907
914.70000000 305.31405850
915.00000000 305.42047837
915.30000000 305.50858797
915.60000000 305.57778922
915.90000000 305.62970744
916.20000000 305.66807317
916.50000000 305.69817262
916.80000000 305.72593542
917.10000000 305.75682920
917.40000000 305.79482669
917.70000000 305.84170017
918.00000000 305.89674900
918.30000000 305.95699541
918.60000000 306.01778753
918.90000000 306.07369793
919.20000000 306.11962026
919.50000000 306.15189564
919.80000000 306.16928397
920.10000000 306.17353632
920.40000000 306.16932963
920.70000000 306.16352269
921.00000000 306.16384161
921.30000000 306.17728419
921.60000000 306.20859272
921.90000000 306.25917404
922.20000000 306.32679519
922.50000000 306.40611051
922.80000000 306.48992608
923.10000000 306.57083890
923.40000000 306.64275368
923.70000000 306.70192100
924.00000000 306.74723789
924.30000000 306.77986211
924.60000000 306.80247681
924.90000000 306.81848892
925.20000000 306.83139214
925.50000000 306.84439184
925.80000000 306.86011858
926.10000000 306.88026073
926.40000000 306.90510803
926.70000000 306.93314161
927.00000000 306.96090057
927.30000000 306.98324365
927.60000000 306.99405280
927.90000000 306.98734810
928.20000000 306.95850193
928.50000000 306.90529685
928.80000000 306.82868136
929.10000000 306.73296947
929.40000000 306.62538795
929.70000000 306.51504056
930.00000000 306.41136163
930.30000000 306.32240211
930.60000000 306.25334485
930.90000000 306.20549191
931.20000000 306.17605610
931.50000000 306.15893704
931.80000000 306.14625342
932.10000000 306.13025616
932.40000000 306.10523360
932.70000000 306.06881429
933.00000000 306.02241060
933.30000000 305.97074516
933.60000000 305.92051467
933.90000000 305.87873511
934.20000000 305.85124803
934.50000000 305.84168371
934.80000000 305.85099579
935.10000000 305.87745851
935.40000000 305.91697847
935.70000000 305.96357590
936.00000000 306.01002548
936.30000000 306.04864624
936.60000000 306.07225457
936.90000000 306.07524428
937.20000000 306.05450643
937.50000000 306.01000604
937.80000000 305.94490023
938.10000000 305.86503613
938.40000000 305.77789395
938.70000000 305.69122975
939.00000000 305.61174106
939.30000000 305.54400912
939.60000000 305.48979352
939.90000000 305.44782180
940.20000000 305.41410871
940.50000000 305.38273038
940.80000000 305.34709502
941.10000000 305.30148387
941.40000000 305.24253386
941.70000000 305.17037358
942.00000000 305.08900528
942.30000000 305.00572908
942.60000000 304.92974716
942.90000000 304.87031496
943.20000000 304.83490655
943.50000000 304.82790492
943.80000000 304.85007035
944.10000000 304.89873279
944.40000000 304.96850131
944.70000000 305.05221801
945.00000000 305.14199836
945.30000000 305.23024812
945.60000000 305.31059378
945.90000000 305.37868887
946.20000000 305.43276676
946.50000000 305.47379731
946.80000000 305.50514443
947.10000000 305.53178618
947.40000000 305.55914536
947.70000000 305.59171082
948.00000000 305.63194831
948.30000000 305.67968031
948.60000000 305.73210402
948.90000000 305.78446515
949.20000000 305.83102969
949.50000000 305.86620421
949.80000000 305.88554832
950.10000000 305.88649468
950.40000000 305.86882679
950.70000000 305.83485848
951.00000000 305.78927307
951.30000000 305.73860912
951.60000000 305.69034436
951.90000000 305.65174967
952.20000000 305.62879383
952.50000000 305.62525660
952.80000000 305.64227880
953.10000000 305.67846130
953.40000000 305.73044232
953.70000000 305.79375803
954.00000000 305.86375767
954.30000000 305.93637030
954.60000000 306.00862864
954.90000000 306.07897952
955.20000000 306.14742634
955.50000000 306.21553011
955.80000000 306.28621389
956.10000000 306.36317533
956.40000000 306.44997622
956.70000000 306.54900691
957.00000000 306.66061034
957.30000000 306.78272033
957.60000000 306.91106796
957.90000000 307.03987440
958.20000000 307.16273441
958.50000000 307.27346612
958.80000000 307.36686614
959.10000000 307.43928817
959.40000000 307.48905890
959.70000000 307.51670549
960.00000000 307.52487894
960.30000000 307.51793907
960.60000000 307.50124882
960.90000000 307.48022065
961.20000000 307.45935200
961.50000000 307.44152070
961.80000000 307.42772566
962.10000000 307.41733492
962.40000000 307.40875137
962.70000000 307.40025272
963.00000000 307.39075047
963.30000000 307.38028437
963.60000000 307.37015234
963.90000000 307.36272519
964.20000000 307.36104131
964.50000000 307.36825749
964.80000000 307.38700977
965.10000000 307.41888035
965.40000000 307.46407182
965.70000000 307.52139899
966.00000000 307.58864179
966.30000000 307.66304772
966.60000000 307.74184361
966.90000000 307.82260413
967.20000000 307.90333697
967.50000000 307.98226979
967.80000000 308.05757917
968.10000000 308.12723079
968.40000000 308.18898308
968.70000000 308.24063994
969.00000000 308.28041676
969.30000000 308.30722189
969.60000000 308.32073167
969.90000000 308.32118863
970.20000000 308.30904756
970.50000000 308.28465147
970.80000000 308.24813859
971.10000000 308.19968293
971.40000000 308.13992535
971.70000000 308.07039002
972.00000000 307.99371023
972.30000000 307.91351332
972.60000000 307.83400170
972.90000000 307.75938972
973.20000000 307.69335500
973.50000000 307.63861121
973.80000000 307.59652981
974.10000000 307.56686304
974.40000000 307.54778217
974.70000000 307.53637852
975.00000000 307.52956581
975.30000000 307.52513187
975.60000000 307.52260308
975.90000000 307.52356190
976.20000000 307.53124485
976.50000000 307.54949804
976.80000000 307.58152036
977.10000000 307.62887140
977.40000000 307.69094337
977.70000000 307.76501750
978.00000000 307.84674193
978.30000000 307.93077360
978.60000000 308.01146966
978.90000000 308.08347955
979.20000000 308.14219895
979.50000000 308.18409790
979.80000000 308.20704839
980.10000000 308.21067430
980.40000000 308.19653927
980.70000000 308.16814153
981.00000000 308.13057697
981.30000000 308.08973821
981.60000000 308.05123639
981.90000000 308.01931095
982.20000000 307.99606652
982.50000000 307.98117089
982.80000000 307.97199775
983.10000000 307.96421729
983.40000000 307.95270545
983.70000000 307.93268008
984.00000000 307.90088667
984.30000000 307.85657934
984.60000000 307.80209593
984.90000000 307.74271859
985.20000000 307.68580045
985.50000000 307.63941772
985.80000000 307.61075801
986.10000000 307.60470848
986.40000000 307.62302398
986.70000000 307.66409068
987.00000000 307.72328197
987.30000000 307.79379387
987.60000000 307.86775986
987.90000000 307.93745506
988.20000000 307.99645087
988.50000000 308.04050620
988.80000000 308.06800116
989.10000000 308.07987791
989.40000000 308.07924311
989.70000000 308.07069854
990.00000000 308.05951862
990.30000000 308.05077822
990.60000000 308.04843455
990.90000000 308.05451054
991.20000000 308.06854475
991.50000000 308.08747971
991.80000000 308.10608147
992.10000000 308.11771967
992.40000000 308.11541389
992.70000000 308.09307257
993.00000000 308.04670342
993.30000000 307.97547103
993.60000000 307.88227206
993.90000000 307.77356490
994.20000000 307.65842591
994.50000000 307.54690045
994.80000000 307.44809095
995.10000000 307.36849885
995.40000000 307.31099743
995.70000000 307.27471284
996.00000000 307.25564555
996.30000000 307.24775212
996.60000000 307.24426155
996.90000000 307.23891796
997.20000000 307.22698429
997.50000000 307.20597593
997.80000000 307.17602318
998.10000000 307.13976540
998.40000000 307.10176393
998.70000000 307.06752751
999.00000000 307.04237201
999.30000000 307.03037678
999.60000000 307.03368810
999.90000000 307.05226657
1000.20000000 307.08400275
1000.50000000 307.12503476
1000.80000000 307.17013849
1001.10000000 307.21322769
1001.40000000 307.24797034
1001.70000000 307.26856226
1002.00000000 307.27062068
1002.30000000 307.25204370
1002.60000000 307.21364232
1002.90000000 307.15921268
1003.20000000 307.09497397
1003.50000000 307.02844918
1003.80000000 306.96694702
1004.10000000 306.91606045
1004.40000000 306.87863020
1004.70000000 306.85434185
1005.00000000 306.84003662
1005.30000000 306.83064876
1005.60000000 306.82050398
1005.90000000 306.80471942
1006.20000000 306.78038817
1006.50000000 306.74729772
1006.80000000 306.70804992
1007.10000000 306.66757762
1007.40000000 306.63214464
1007.70000000 306.60804578
1008.00000000 306.60030551
1008.30000000 306.61167494
1008.60000000 306.64217361
1008.90000000 306.68927916
1009.20000000 306.74868261
1009.50000000 306.81539074
1009.80000000 306.88481475
1010.10000000 306.95341652
1010.40000000 307.01880717
1010.70000000 307.07942005
1011.00000000 307.13402278
1011.30000000 307.18146009
1011.60000000 307.22078578
1011.90000000 307.25164104
1012.20000000 307.27456951
1012.50000000 307.29111659
1012.80000000 307.30351182
1013.10000000 307.31401338
1013.40000000 307.32423194
1013.70000000 307.33460451
1014.00000000 307.34417612
1014.30000000 307.35073508
1014.60000000 307.35131109
1014.90000000 307.34295658
1015.20000000 307.32360776
1015.50000000 307.29280008
1015.80000000 307.25195745
1016.10000000 307.20412991
1016.40000000 307.15329979
1016.70000000 307.10347228
1017.00000000 307.05781368
1017.30000000 307.01811885
1017.60000000 306.98475697
1017.90000000 306.95702032
1018.20000000 306.93373375
1018.50000000 306.91394523
1018.80000000 306.89753823
1019.10000000 306.88559885
1019.40000000 306.88027892
1019.70000000 306.88409241
1020.00000000 306.89894720
1020.30000000 306.92523727
1020.60000000 306.96130368
1020.90000000 307.00356218
1021.20000000 307.04725653
1021.50000000 307.08754600
1021.80000000 307.12055779
1022.10000000 307.14404149
1022.40000000 307.15752076
1022.70000000 307.16199526
1023.00000000 307.15938573
1023.30000000 307.15189745
1023.60000000 307.14141435
1023.90000000 307.12906280
1024.20000000 307.11499344
1024.50000000 307.09842108
1024.80000000 307.07786833
1025.10000000 307.05145716
1025.40000000 307.01717051
1025.70000000 306.97301249
1026.00000000 306.91706868
1026.30000000 306.84771612
1026.60000000 306.76405779
1026.90000000 306.66649675
1027.20000000 306.55725670
1027.50000000 306.44062572
1027.80000000 306.32279879
1028.10000000 306.21118074
1028.40000000 306.11329826
1028.70000000 306.03553095
1029.00000000 305.98179821
1029.30000000 305.95260015
1029.60000000 305.94470887
1029.90000000 305.95163876
1030.20000000 305.96490324
1030.50000000 305.97572596
1030.80000000 305.97682972
1031.10000000 305.96387049
1031.40000000 305.93616789
1031.70000000 305.89671804
1032.00000000 305.85151655
1032.30000000 305.80837802
1032.60000000 305.77548479
1032.90000000 305.75985047
1033.20000000 305.76590950
1033.50000000 305.79449910
1033.80000000 305.84250869
1034.10000000 305.90324791
1034.40000000 305.96743784
1034.70000000 306.02469549
1035.00000000 306.06517977
1035.30000000 306.08109459
1035.60000000 306.06795929
1035.90000000 306.02544619
1036.20000000 305.95762110
1036.50000000 305.87247738
1036.80000000 305.78071765
1037.10000000 305.69406680
1037.40000000 305.62343328
1037.70000000 305.57724601
1038.00000000 305.56023480
1038.30000000 305.57280127
1038.60000000 305.61107132
1038.90000000 305.66758195
1039.20000000 305.73259676
1039.50000000 305.79591593
1039.80000000 305.84879672
1040.10000000 305.88569519
1040.40000000 305.90545986
1040.70000000 305.91153924
1041.00000000 305.91124991
1041.30000000 305.91434467
1041.60000000 305.93114867
1041.90000000 305.97069769
1042.20000000 306.03921341
1042.50000000 306.13906769
1042.80000000 306.26832763
1043.10000000 306.42091542
1043.40000000 306.58739992
1043.70000000 306.75636598
1044.00000000 306.91615987
1044.30000000 307.05678932
1044.60000000 307.17158427
1044.90000000 307.25819898
1045.20000000 307.31875983
1045.50000000 307.35911822
1045.80000000 307.38740865
1046.10000000 307.41232766
1046.40000000 307.44159483
1046.70000000 307.48090137
1047.00000000 307.53341104
1047.30000000 307.59968967
1047.60000000 307.67788850
1047.90000000 307.76410753
1048.20000000 307.85290180
1048.50000000 307.93797627
1048.80000000 308.01320031
1049.10000000 308.07378890
1049.40000000 308.11737869
1049.70000000 308.14477131
1050.00000000 308.16000583
1050.30000000 308.16970216
1050.60000000 308.18185686
1050.90000000 308.20437682
1051.20000000 308.24369138
1051.50000000 308.30370763
1051.80000000 308.38522631
1052.10000000 308.48582029
1052.40000000 308.60015153
1052.70000000 308.72075410
1053.00000000 308.83930564
1053.30000000 308.94813993
1053.60000000 309.04170638
1053.90000000 309.11757084
1054.20000000 309.17659452
1054.50000000 309.22218417
1054.80000000 309.25888954
1055.10000000 309.29094033
1055.40000000 309.32119494
1055.70000000 309.35078997
1056.00000000 309.37948372
1056.30000000 309.40637776
1056.60000000 309.43058298
1056.90000000 309.45150560
1057.20000000 309.46871163
1057.50000000 309.48152741
1057.80000000 309.48867926
1058.10000000 309.48825212
1058.40000000 309.47806915
1058.70000000 309.45627274
1059.00000000 309.42190806
1059.30000000 309.37537906
1059.60000000 309.31853058
1059.90000000 309.25439734
1060.20000000 309.18674832
1060.50000000 309.11946092
1060.80000000 309.05589182
1061.10000000 308.99838078
1061.40000000 308.94796824
1061.70000000 308.90442792
1062.00000000 308.86664807
1062.30000000 308.83328988
1062.60000000 308.80348190
1062.90000000 308.77725168
1063.20000000 308.75542155
1063.50000000 308.73891245
1063.80000000 308.72774629
1064.10000000 308.72020145
1064.40000000 308.71261322
1064.70000000 308.70007378
1065.00000000 308.67781647
1065.30000000 308.64273465
1065.60000000 308.59445668
1065.90000000 308.53561741
1066.20000000 308.46612654
1066.50000000 308.39636210
1066.80000000 308.33172692
1067.10000000 308.27584856
1067.40000000 308.22974146
1067.70000000 308.19168657
1068.00000000 308.15775004
1068.30000000 308.12273013
1068.60000000 308.08128003
1068.90000000 308.02895393
1069.20000000 307.96299850
1069.50000000 307.88278038
1069.80000000 307.78974170
1070.10000000 307.68694683
1070.40000000 307.57846941
1070.70000000 307.46879497
1071.00000000 307.36244817
1071.30000000 307.26385179
1071.60000000 307.17721320
1071.90000000 307.10627615
1072.20000000 307.05380864
1072.50000000 307.02090886
1072.80000000 307.00634643
1073.10000000 307.00626602
1073.40000000 307.01451908
1073.70000000 307.02372893
1074.00000000 307.02697149
1074.30000000 307.01955796
1074.60000000 307.00035175
1074.90000000 306.97228696
1075.20000000 306.94186169
1075.50000000 306.91772312
1075.80000000 306.90872747
1076.10000000 306.92192456
1076.40000000 306.96093923
1076.70000000 307.02508559
1077.00000000 307.10942743
1077.30000000 307.20567778
1077.60000000 307.30366559
1077.90000000 307.39308372
1078.20000000 307.46516853
1078.50000000 307.51401454
1078.80000000 307.53732885
1079.10000000 307.53656322
1079.40000000 307.51643996
1079.70000000 307.48395258
1080.00000000 307.44707023
1080.30000000 307.41347097
1080.60000000 307.38944190
1080.90000000 307.37902744
1081.20000000 307.38354398
1081.50000000 307.40148127
1081.80000000 307.42877497
1082.10000000 307.45942723
1082.40000000 307.48647451
1082.70000000 307.50323047
1083.00000000 307.50463879
1083.30000000 307.48848937
1083.60000000 307.45615184
1083.90000000 307.41255929
1084.20000000 307.36542571
1084.50000000 307.32383430
1084.80000000 307.29656442
1085.10000000 307.29048490
1085.40000000 307.30926462
1085.70000000 307.35271337
1086.00000000 307.41682111
1086.30000000 307.49446907
1086.60000000 307.57672832
1086.90000000 307.65447176
1087.20000000 307.71995596
1087.50000000 307.76805589
1087.80000000 307.79690554
1088.10000000 307.80786849
1088.40000000 307.80486438
1088.70000000 307.79323015
1089.00000000 307.77842884
1089.30000000 307.76487812
1089.60000000 307.75514018
1089.90000000 307.74960745
1090.20000000 307.74668961
1090.50000000 307.74334317
1090.80000000 307.73576121
1091.10000000 307.72009552
1091.40000000 307.69304807
1091.70000000 307.65230159
1092.00000000 307.59687524
1092.30000000 307.52734214
1092.60000000 307.44586165
1092.90000000 307.35603590
1093.20000000 307.26254900
1093.50000000 307.17058892
1093.80000000 307.08511338
1094.10000000 307.01010828
1094.40000000 306.94794251
1094.70000000 306.89897947
1095.00000000 306.86161124
1095.30000000 306.83269655
1095.60000000 306.80830302
1095.90000000 306.78466761
1096.20000000 306.75913095
1096.50000000 306.73079290
1096.80000000 306.70073819
1097.10000000 306.67173263
1097.40000000 306.64747860
1097.70000000 306.63159925
1098.00000000 306.62653558
1098.30000000 306.63266043
1098.60000000 306.64789625
1098.90000000 306.66799339
1099.20000000 306.68735330
1099.50000000 306.70021242
1099.80000000 306.70187548
1100.10000000 306.68958225
1100.40000000 306.66285303
1100.70000000 306.62330583
1101.00000000 306.57403767
1101.30000000 306.51874215
1101.60000000 306.46079013
1101.90000000 306.40250994
1102.20000000 306.34486513
1102.50000000 306.28758364
1102.80000000 306.22962954
1103.10000000 306.16976665
1103.40000000 306.10693022
1103.70000000 306.04040792
1104.00000000 305.96989247
1104.30000000 305.89552198
1104.60000000 305.81814171
1104.90000000 305.73966351
1105.20000000 305.66325759
1105.50000000 305.59330680
1105.80000000 305.53495653
1106.10000000 305.49330383
1106.40000000 305.47249273
1106.70000000 305.47485852
1107.00000000 305.50023610
1107.30000000 305.54560040
1107.60000000 305.60522184
1107.90000000 305.67143581
1108.20000000 305.73605727
1108.50000000 305.79217451
1108.80000000 305.83576090
1109.10000000 305.86662762
1109.40000000 305.88838789
1109.70000000 305.90739124
1110.00000000 305.93096724
1110.30000000 305.96551220
1110.60000000 306.01491329
1110.90000000 306.07960297
1111.20000000 306.16187128
1111.50000000 306.25169599
1111.80000000 306.34144269
1112.10000000 306.42301115
1112.40000000 306.48920334
1112.70000000 306.53479594
1113.00000000 306.55719130
1113.30000000 306.55666423
1113.60000000 306.53634335
1113.90000000 306.50192907
1114.20000000 306.46108611
1114.50000000 306.42255669
1114.80000000 306.39507078
1115.10000000 306.38620860
1115.40000000 306.40140318
1115.70000000 306.44322440
1116.00000000 306.51100683
1116.30000000 306.60088386
1116.60000000 306.70628439
1116.90000000 306.81889332
1117.20000000 306.93007463
1117.50000000 307.03253213
1117.80000000 307.12178234
1118.10000000 307.19709909
1118.40000000 307.26168042
1118.70000000 307.32192914
1119.00000000 307.38601833
1119.30000000 307.46207237
1119.60000000 307.55636279
1119.90000000 307.67188771
1120.20000000 307.80763690
1120.50000000 307.95867745
1120.80000000 308.11702993
1121.10000000 308.27308550
1121.40000000 308.41722300
1121.70000000 308.54132075
1122.00000000 308.63986332
1122.30000000 308.71053173
1122.60000000 308.75431749
1122.90000000 308.77520900
1123.20000000 308.77950127
1123.50000000 308.77481479
1123.80000000 308.76893224
1124.10000000 308.76861452
1124.40000000 308.77862501
1124.70000000 308.80118302
1125.00000000 308.83593789
1125.30000000 308.88035158
1125.60000000 308.93037087
1125.90000000 308.98129223
1126.20000000 309.02862899
1126.50000000 309.06890035
1126.80000000 309.10032157
1127.10000000 309.12327151
1127.40000000 309.14041044
1127.70000000 309.15633485
1128.00000000 309.17675393
1128.30000000 309.20737441
1128.60000000 309.25275017
1128.90000000 309.31540134
1129.20000000 309.39535070
1129.50000000 309.49008418
1129.80000000 309.59488048
1130.10000000 309.70341815
1130.40000000 309.80864462
1130.70000000 309.90386081
1131.00000000 309.98388946
1131.30000000 310.04604029
1131.60000000 310.09056095
1131.90000000 310.12035222
1132.20000000 310.14000751
1132.50000000 310.15445040
1132.80000000 310.16759351
1133.10000000 310.18144937
1133.40000000 310.19586365
1133.70000000 310.20890670
1134.00000000 310.21777205
1134.30000000 310.21975972
1134.60000000 310.21303653
1134.90000000 310.19701687
1135.20000000 310.17230487
1135.50000000 310.14044658
1135.80000000 310.10369115
1136.10000000 310.06479939
1136.40000000 310.02688311
1136.70000000 309.99317411
1137.00000000 309.96663929
1137.30000000 309.94956018
1137.60000000 309.94327511
1137.90000000 309.94815742
1138.20000000 309.96384306
1138.50000000 309.98954921
1138.80000000 310.02422896
1139.10000000 310.06656446
1139.40000000 310.11496193
1139.70000000 310.16767666
1140.00000000 310.22316916
1140.30000000 310.28062028
1140.60000000 310.34031099
1140.90000000 310.40351932
1141.20000000 310.47179409
1141.50000000 310.54581370
1141.80000000 310.62434078
1142.10000000 310.70377035
1142.40000000 310.77853611
1142.70000000 310.84227361
1143.00000000 310.88933029
1143.30000000 310.91614643
1143.60000000 310.92206162
1143.90000000 310.90933481
1144.20000000 310.88248472
1144.50000000 310.84722860
1144.80000000 310.80930858
1145.10000000 310.77347980
1145.40000000 310.74284850
1145.70000000 310.71853745
1146.00000000 310.69963316
1146.30000000 310.68349105
1146.60000000 310.66644831
1146.90000000 310.64483336
1147.20000000 310.61604608
1147.50000000 310.57935935
1147.80000000 310.53621416
1148.10000000 310.48995296
1148.40000000 310.44516410
1148.70000000 310.40694589
1149.00000000 310.38031014
1149.30000000 310.36976783
1149.60000000 310.37892194
1149.90000000 310.40996295
1150.20000000 310.46308864
1150.50000000 310.53593641
1150.80000000 310.62337372
1151.10000000 310.71789374
1151.40000000 310.81061945
1151.70000000 310.89280591
1152.00000000 310.95747032
1152.30000000 311.00073686
1152.60000000 311.02248676
1152.90000000 311.02614018
1153.20000000 311.01764773
1153.50000000 311.00397837
1153.80000000 310.99154407
1154.10000000 310.98488861
1154.40000000 310.98585818
1154.70000000 310.99334578
1155.00000000 311.00355683
1155.30000000 311.01071755
1155.60000000 311.00820096
1155.90000000 310.98988450
1156.20000000 310.95141296
1156.50000000 310.89115348
1156.80000000 310.81062904
1157.10000000 310.71434290
1157.40000000 310.60911474
1157.70000000 310.50309854
1158.00000000 310.40475256
1158.30000000 310.32183948
1158.60000000 310.26048715
1158.90000000 310.22441376
1159.20000000 310.21435653
1159.50000000 310.22781461
1159.80000000 310.25928444
1160.10000000 310.30103260
1160.40000000 310.34432807
1160.70000000 310.38099634
1161.00000000 310.40495697
1161.30000000 310.41340569
1161.60000000 310.40739000
1161.90000000 310.39156131
1162.20000000 310.37309406
1162.50000000 310.36003824
1162.80000000 310.35955566
1163.10000000 310.37641541
1163.40000000 310.41206800
1163.70000000 310.46439116
1164.00000000 310.52806236
1164.30000000 310.59544332
1164.60000000 310.65780076
1164.90000000 310.70669311
1165.20000000 310.73525820
1165.50000000 310.73920214
1165.80000000 310.71737438
1166.10000000 310.67185040
1166.40000000 310.60750485
1166.70000000 310.53117489
1167.00000000 310.45060448
1167.30000000 310.37331260
1167.60000000 310.30551985
1167.90000000 310.25125801
1168.20000000 310.21179324
1168.50000000 310.18553156
1168.80000000 310.16844998
1169.10000000 310.15497923
1169.40000000 310.13914356
1169.70000000 310.11573918
1170.00000000 310.08133325
1170.30000000 310.03493561
1170.60000000 309.97821652
1170.90000000 309.91520636
1171.20000000 309.85155105
1171.50000000 309.79344943
1171.80000000 309.74651864
1172.10000000 309.71487654
1172.40000000 309.70053276
1172.70000000 309.70316467
1173.00000000 309.72027913
1173.30000000 309.74759133
1173.60000000 309.77960411
1173.90000000 309.81033868
1174.20000000 309.83409534
1174.50000000 309.84624783
1174.80000000 309.84399780
1175.10000000 309.82687355
1175.40000000 309.79681929
1175.70000000 309.75779541
1176.00000000 309.71490019
1176.30000000 309.67319246
1176.60000000 309.63652645
1176.90000000 309.60668901
1177.20000000 309.58301909
1177.50000000 309.56270164
1177.80000000 309.54162057
1178.10000000 309.51548910
1178.40000000 309.48101727
1178.70000000 309.43674915
1179.00000000 309.38331337
1179.30000000 309.32318334
1179.60000000 309.26004441
1179.90000000 309.19795911
1180.20000000 309.14065093
1180.50000000 309.09094894
1180.80000000 309.05043987
1181.10000000 309.01942478
1181.40000000 308.99711928
1181.70000000 308.98206312
1182.00000000 308.97260642
1182.30000000 308.96732273
1182.60000000 308.96520414
1182.90000000 308.96555719
1183.20000000 308.96773448
1183.50000000 308.97094039
1183.80000000 308.97433026
1184.10000000 308.97733868
1184.40000000 308.98002616
1184.70000000 308.98320360
1185.00000000 308.98815794
1185.30000000 308.99597076
1185.60000000 309.00667880
1185.90000000 309.01867571
1186.20000000 309.02867396
1186.50000000 309.03228609
1186.80000000 309.02502089
1187.10000000 309.00343046
1187.40000000 308.96610416
1187.70000000 308.91424415
1188.00000000 308.85169615
1188.30000000 308.78432819
1188.60000000 308.71877017
1188.90000000 308.66080261
1189.20000000 308.61385138
1189.50000000 308.57804970
1189.80000000 308.55022480
1190.10000000 308.52486756
1190.40000000 308.49576659
1190.70000000 308.45780649
1191.00000000 308.40843366
1191.30000000 308.34838902
1191.60000000 308.28152328
1191.90000000 308.21381330
1192.20000000 308.15194807
1192.50000000 308.10193767
1192.80000000 308.06802332
1193.10000000 308.05214172
1193.40000000 308.05396967
1193.70000000 308.07132742
1194.00000000 308.10070135
1194.30000000 308.13766667
1194.60000000 308.17718614
1194.90000000 308.21386556
1195.20000000 308.24231363
1195.50000000 308.25774539
1195.80000000 308.25676421
1196.10000000 308.23812441
1196.40000000 308.20323155
1196.70000000 308.15617687
1197.00000000 308.10322636
1197.30000000 308.05174071
1197.60000000 308.00871714
1197.90000000 307.97926314
1198.20000000 307.96535162
1198.50000000 307.96519450
1198.80000000 307.97350364
1199.10000000 307.98263913
1199.40000000 307.98433152
1199.70000000 307.97152610
1200.00000000 307.93988459
1200.30000000 307.88865998
1200.60000000 307.82078016
1200.90000000 307.74219663
1201.20000000 307.66072431
1201.50000000 307.58468048
1201.80000000 307.52161185
1202.10000000 307.47731001
1202.40000000 307.45518666
1202.70000000 307.45597631
1203.00000000 307.47769704
1203.30000000 307.51588249
1203.60000000 307.56413332
1203.90000000 307.61496578
1204.20000000 307.66094071
1204.50000000 307.69599681
1204.80000000 307.71664995
1205.10000000 307.72280094
1205.40000000 307.71790144
1205.70000000 307.70828434
1206.00000000 307.70183532
1206.30000000 307.70628745
1206.60000000 307.72749595
1206.90000000 307.76811382
1207.20000000 307.82700354
1207.50000000 307.89945822
1207.80000000 307.97811845
1208.10000000 308.05443406
1208.40000000 308.12025559
1208.70000000 308.16918839
1209.00000000 308.19746326
1209.30000000 308.20424580
1209.60000000 308.19141111
1209.90000000 308.16291769
1210.20000000 308.12401705
1210.50000000 308.08041850
1210.80000000 308.03755979
1211.10000000 308.00004908
1211.40000000 307.97129887
1211.70000000 307.95337287
1212.00000000 307.94689749
1212.30000000 307.95102421
1212.60000000 307.96348508
1212.90000000 307.98083316
1213.20000000 307.99906417
1213.50000000 308.01445732
1213.80000000 308.02449050
1214.10000000 308.02865039
1214.40000000 308.02877618
1214.70000000 308.02878519
1215.00000000 308.03380662
1215.30000000 308.04886775
1215.60000000 308.07753796
1215.90000000 308.12096045
1216.20000000 308.17748366
1216.50000000 308.24304782
1216.80000000 308.31219278
1217.10000000 308.37925538
1217.40000000 308.43946364
1217.70000000 308.48969180
1218.00000000 308.52869852
1218.30000000 308.55690331
1218.60000000 308.57584423
1218.90000000 308.58753197
1219.20000000 308.59387991
1219.50000000 308.59630798
1219.80000000 308.59552844
1220.10000000 308.59158820
1220.40000000 308.58416583
1220.70000000 308.57291675
1221.00000000 308.55778371
1221.30000000 308.53914461
1221.60000000 308.51769141
1221.90000000 308.49421497
1222.20000000 308.46947322
1222.50000000 308.44422819
1222.80000000 308.41941657
1223.10000000 308.39631450
1223.40000000 308.37660710
1223.70000000 308.36217920
1224.00000000 308.35467717
1224.30000000 308.35502609
1224.60000000 308.36314007
1224.90000000 308.37798643
1225.20000000 308.39789136
1225.50000000 308.42104186
1225.80000000 308.44604192
1226.10000000 308.47228709
1226.40000000 308.50011079
1226.70000000 308.53067848
1227.00000000 308.56566289
1227.30000000 308.60678357
1227.60000000 308.65535239
1227.90000000 308.71189233
1228.20000000 308.77581619
1228.50000000 308.84519249
1228.80000000 308.91664235
1229.10000000 308.98551267
1229.40000000 309.04637234
1229.70000000 309.09390125
1230.00000000 309.12398645
1230.30000000 309.13466473
1230.60000000 309.12668393
1230.90000000 309.10342205
1231.20000000 309.07023627
1231.50000000 309.03350826
1231.80000000 308.99960957
1232.10000000 308.97396358
1232.40000000 308.96017892
1232.70000000 308.95937096
1233.00000000 308.96990544
1233.30000000 308.98763819
1233.60000000 309.00679552
1233.90000000 309.02145547
1234.20000000 309.02715593
1234.50000000 309.02217941
1234.80000000 309.00810389
1235.10000000 308.98942312
1235.40000000 308.97242716
1235.70000000 308.96379593
1236.00000000 308.96934597
1236.30000000 308.99314097
1236.60000000 309.03708719
1236.90000000 309.10096764
1237.20000000 309.18264948
1237.50000000 309.27835536
1237.80000000 309.38303327
1238.10000000 309.49076586
1238.40000000 309.59528698
1238.70000000 309.69058872
1239.00000000 309.77157212
1239.30000000 309.83478991
1239.60000000 309.87908553
1239.90000000 309.90593990
1240.20000000 309.91941708
1240.50000000 309.92555032
1240.80000000 309.93123860
1241.10000000 309.94290500
1241.40000000 309.96519345
1241.70000000 309.99990613
1242.00000000 310.04545243
1242.30000000 310.09710651
1242.60000000 310.14804386
1242.90000000 310.19089886
1243.20000000 310.21952875
1243.50000000 310.23046122
1243.80000000 310.22360804
1244.10000000 310.20214812
1244.40000000 310.17173032
1244.70000000 310.13928285
1245.00000000 310.11178161
1245.30000000 310.09528340
1245.60000000 310.09430028
1245.90000000 310.11145302
1246.20000000 310.14737088
1246.50000000 310.20073482
1246.80000000 310.26845208
1247.10000000 310.34596425
1247.40000000 310.42773501
1247.70000000 310.50796456
1248.00000000 310.58139673
1248.30000000 310.64409359
1248.60000000 310.69404936
1248.90000000 310.73152513
1249.20000000 310.75903389
1249.50000000 310.78085329
1249.80000000 310.80214943
1250.10000000 310.81230378
1250.40000000 310.83196126
1250.70000000 310.86261601
1251.00000000 310.90327445
1251.30000000 310.95074060
1251.60000000 311.00033949
1251.90000000 311.04689655
1252.20000000 311.08562081
1252.50000000 311.11275160
1252.80000000 311.12597813
1253.10000000 311.12460369
1253.40000000 311.10952621
1253.70000000 311.08310157
1254.00000000 311.04890126
1254.30000000 311.01133508
1254.60000000 310.97519183
1254.90000000 310.94516270
1255.20000000 310.92540158
1255.50000000 310.91920102
1255.80000000 310.92871382
1256.10000000 310.95472367
1256.40000000 310.99648944
1256.70000000 311.05168273
1257.00000000 311.11665749
1257.30000000 311.18707688
1257.60000000 311.25875863
1257.90000000 311.32860810
1258.20000000 311.39522340
1258.50000000 311.45898935
1258.80000000 311.52164392
1259.10000000 311.58543691
1259.40000000 311.65231954
1259.70000000 311.72338403
1260.00000000 311.79869895
1260.30000000 311.87767538
1260.60000000 311.95968250
1260.90000000 312.04448917
1261.20000000 312.13235012
1261.50000000 312.22362242
1261.80000000 312.31800234
1262.10000000 312.41380211
1262.40000000 312.50771202
1262.70000000 312.59527039
1263.00000000 312.67189090
1263.30000000 312.73409618
1263.60000000 312.78052782
1263.90000000 312.81236682
1264.20000000 312.83318834
1264.50000000 312.84835542
1264.80000000 312.86413045
1265.10000000 312.88667959
1265.40000000 312.92104489
1265.70000000 312.97030543
1266.00000000 313.03504604
1266.30000000 313.11332811
1266.60000000 313.20136178
1266.90000000 313.29467760
1267.20000000 313.38936989
1267.50000000 313.48293762
1267.80000000 313.57448139
1268.10000000 313.66434199
1268.40000000 313.75343366
1268.70000000 313.84272388
1269.00000000 313.93312886
1269.30000000 314.02576889
1269.60000000 314.12234810
1269.90000000 314.22532673
1270.20000000 314.33763714
1270.50000000 314.46196148
1270.80000000 314.59976705
1271.10000000 314.75036575
1271.40000000 314.91046728
1271.70000000 315.07450441
1272.00000000 315.23561350
1272.30000000 315.38699226
1272.60000000 315.52318103
1272.90000000 315.64087391
1273.20000000 315.73918221
1273.50000000 315.81947627
1273.80000000 315.88494578
1274.10000000 315.94000107
1274.40000000 315.98961989
1274.70000000 316.03856549
1275.00000000 316.09055742
1275.30000000 316.14762562
1275.60000000 316.20982065
1275.90000000 316.27544622
1276.20000000 316.34175741
1276.50000000 316.40584039
1276.80000000 316.46534667
1277.10000000 316.51887429
1277.40000000 316.56608424
1277.70000000 316.60765834
1278.00000000 316.64508200
1278.30000000 316.68045962
1278.60000000 316.71641217
1278.90000000 316.75587136
1279.20000000 316.80179213
1279.50000000 316.85668569
1279.80000000 316.92204920
1280.10000000 316.99789061
1280.40000000 317.08250000
1280.70000000 317.17265753
1281.00000000 317.26420674
1281.30000000 317.35281764
1281.60000000 317.43467206
1281.90000000 317.50683574
1282.20000000 317.56736496
1282.50000000 317.61524410
1282.80000000 317.65020255
1283.10000000 317.67255791
1283.40000000 317.68313104
1283.70000000 317.68315203
1284.00000000 317.67415397
1284.30000000 317.65775677
1284.60000000 317.63535200
1284.90000000 317.60787430
1285.20000000 317.57565841
1285.50000000 317.53845414
1285.80000000 317.49558707
1286.10000000 317.44611668
1286.40000000 317.38904194
1286.70000000 317.32358087
1287.00000000 317.24942513
1287.30000000 317.16691481
1287.60000000 317.07712041
1287.90000000 316.98177024
1288.20000000 316.88303165
1288.50000000 316.78321436
1288.80000000 316.68441799
1289.10000000 316.58820591
1289.40000000 316.49544803
1289.70000000 316.40642062
1290.00000000 316.32110438
1290.30000000 316.23946137
1290.60000000 316.16154765
1290.90000000 316.08745945
1291.20000000 316.01714446
1291.50000000 315.95019802
1291.80000000 315.88573647
1292.10000000 315.82245091
1292.40000000 315.75880372
1292.70000000 315.69325156
1293.00000000 315.62443923
1293.30000000 315.55136233
1293.60000000 315.47346527
1293.90000000 315.39061308
1294.20000000 315.30295592
1294.50000000 315.21070367
1294.80000000 315.11387105
1295.10000000 315.02873565
1295.40000000 314.93855209
1295.70000000 314.84224761
1296.00000000 314.73882459
1296.30000000 314.62758949
1296.60000000 314.50836040
1296.90000000 314.38154560
1297.20000000 314.24816382
1297.50000000 314.10981458
1297.80000000 313.96849929
1298.10000000 313.82636690
1298.40000000 313.68550524
1298.70000000 313.54787672
1299.00000000 313.41539328
1299.30000000 313.29006003
1299.60000000 313.17401208
1299.90000000 313.06928064
1300.20000000 312.97739314
1300.50000000 312.89898351
1300.80000000 312.83357619
1301.10000000 312.77973638
1301.40000000 312.73556751
1301.70000000 312.69922812
1302.00000000 312.66924812
1302.30000000 312.64461939
1302.60000000 312.62463861
1302.90000000 312.60868552
1303.20000000 312.59611820
1303.50000000 312.58630422
1303.80000000 312.57876995
1304.10000000 312.57337281
1304.40000000 312.57030944
1304.70000000 312.56993878
1305.00000000 312.57243743
1305.30000000 312.57729126
1305.60000000 312.58284023
1305.90000000 312.58618439
1306.20000000 312.58356612
1306.50000000 312.57116948
1306.80000000 312.54613175
1307.10000000 312.50740706
1307.40000000 312.45616538
1307.70000000 312.39559573
1308.00000000 312.33027830
1308.30000000 312.26535773
1308.60000000 312.20571988
1308.90000000 312.15537253
1309.20000000 312.11702107
1309.50000000 312.09181130
1309.80000000 312.07940336
1310.10000000 312.07837037
1310.40000000 312.08681678
1310.70000000 312.10309385
1311.00000000 312.12628579
1311.30000000 312.15630917
1311.60000000 312.19365430
1311.90000000 312.23886892
1312.20000000 312.29210005
1312.50000000 312.35295502
1312.80000000 312.42071139
1313.10000000 312.49474535
1313.40000000 312.57491678
1313.70000000 312.66171673
1314.00000000 312.75593821
1314.30000000 312.85795542
1314.60000000 312.96694155
1314.90000000 313.08033903
1315.20000000 313.19392877
1315.50000000 313.30250845
1315.80000000 313.40094394
1316.10000000 313.48532863
1316.40000000 313.55380580
1316.70000000 313.60672442
1317.00000000 313.64620033
1317.30000000 313.67530312
1317.60000000 313.69710114
1317.90000000 313.71389905
1318.20000000 313.72687762
1318.50000000 313.73612335
1318.80000000 313.74098144
1319.10000000 313.74066881
1319.40000000 313.73494010
1319.70000000 313.72453240
1320.00000000 313.71129945
1320.30000000 313.69797545
1320.60000000 313.68756929
1320.90000000 313.68265724
1321.20000000 313.68479817
1321.50000000 313.69426538
1321.80000000 313.71023416
1322.10000000 313.73138131
1322.40000000 313.75661688
1322.70000000 313.78561098
1323.00000000 313.81895274
1323.30000000 313.85782468
1323.60000000 313.90332684
1323.90000000 313.95579747
1324.20000000 314.01437926
1324.50000000 314.07703963
1324.80000000 314.14103833
1325.10000000 314.20359939
1325.40000000 314.26252089
1325.70000000 314.31644731
1326.00000000 314.36475154
1326.30000000 314.40715476
1326.60000000 314.44325589
1326.90000000 314.47223351
1327.20000000 314.49282760
1327.50000000 314.50356606
1327.80000000 314.50318871
1328.10000000 314.49112564
1328.40000000 314.46785195
1328.70000000 314.43499658
1329.00000000 314.39508300
1329.30000000 314.35098835
1329.60000000 314.30531565
1329.90000000 314.25981548
1330.20000000 314.21509106
1330.50000000 314.17069480
1330.80000000 314.12553930
1331.10000000 314.07851689
1331.40000000 314.02911416
1331.70000000 313.97780651
1332.00000000 313.92614150
1332.30000000 313.87650402
1332.60000000 313.83163032
1332.90000000 313.79405242
1333.20000000 313.76565791
1333.50000000 313.74749156
1333.80000000 313.73980686
1334.10000000 313.74232683
1334.40000000 313.75450398
1334.70000000 313.77559728
1335.00000000 313.80458789
1335.30000000 313.84001215
1335.60000000 313.87979953
1335.90000000 313.92127902
1336.20000000 313.96143719
1336.50000000 313.99734470
1336.80000000 314.02666604
1337.10000000 314.04807143
1337.40000000 314.06144958
1337.70000000 314.06786330
1338.00000000 314.06930172
1338.30000000 314.06824972
1338.60000000 314.06707714
1338.90000000 314.06743518
1339.20000000 314.06985197
1339.50000000 314.07365949
1339.80000000 314.07729027
1340.10000000 314.07887528
1340.40000000 314.07687077
1340.70000000 314.07050999
1341.00000000 314.06000405
1341.30000000 314.04644543
1341.60000000 314.03155193
1341.90000000 314.01743369
1342.20000000 314.00639374
1342.50000000 314.00081036
1342.80000000 314.00316085
1343.10000000 314.01598176
1343.40000000 314.04171687
1343.70000000 314.08242765
1344.00000000 314.13935067
1344.30000000 314.21249191
1344.60000000 314.33323044
1344.90000000 314.46263013
1345.20000000 314.59702639
1345.50000000 314.73263495
1345.80000000 314.86605353
1346.10000000 314.99457845
1346.40000000 315.11636228
1346.70000000 315.23054527
1347.00000000 315.33730900
1347.30000000 315.43778578
1347.60000000 315.53379880
1347.90000000 315.62732517
1348.20000000 315.71986164
1348.50000000 315.81193190
1348.80000000 315.90292848
1349.10000000 315.99134653
1349.40000000 316.07523425
1349.70000000 316.15271232
1350.00000000 316.22241273
1350.30000000 316.28368696
1350.60000000 316.33664166
1350.90000000 316.38360588
1351.20000000 316.42460019
1351.50000000 316.46133005
1351.80000000 316.51350649
1352.10000000 316.56555956
1352.40000000 316.61844096
1352.70000000 316.72253514
1353.00000000 316.82516547
1353.30000000 316.92395178
1353.60000000 317.03524106
1353.90000000 317.13595514
1354.20000000 317.22499523
1354.50000000 317.28035447
1354.80000000 317.32523818
1355.10000000 317.36125689
1355.40000000 317.39049434
1355.70000000 317.41510500
1356.00000000 317.43918967
1356.30000000 317.46997832
1356.60000000 317.49802904
1356.90000000 317.52440467
1357.20000000 317.54987827
1357.50000000 317.57473778
1357.80000000 317.59868394
1358.10000000 317.61995327
1358.40000000 317.63903952
1358.70000000 317.65434645
1359.00000000 317.66440878
1359.30000000 317.66813347
1359.60000000 317.66482021
1359.90000000 317.65399325
1360.20000000 317.63516956
1360.50000000 317.60770212
1360.80000000 317.57077507
1361.10000000 317.55641184
1361.40000000 317.52459532
1361.70000000 317.50556218
1362.00000000 317.46702064
1362.30000000 317.40969333
1362.60000000 317.37403286
1362.90000000 317.32902012
1363.20000000 317.27613211
1363.50000000 317.20963211
1363.80000000 317.13052910
1364.10000000 317.04231255
1364.40000000 316.88325868
1364.70000000 316.72452031
1365.00000000 316.57096870
1365.30000000 316.38608896
1365.60000000 316.21025529
1365.90000000 316.04187205
1366.20000000 315.87498830
1366.50000000 315.70640295
1366.80000000 315.53510909
1367.10000000 315.35949851
1367.40000000 315.17736827
1367.70000000 314.98614963
1368.00000000 314.78341382
1368.30000000 314.56772974
1368.60000000 314.33956367
1368.90000000 314.13519001
1369.20000000 313.92167307
1369.50000000 313.70244874
1369.80000000 313.36834207
1370.10000000 313.04548094
1370.40000000 312.73971822
1370.70000000 312.44371536
1371.00000000 312.15593930
1371.30000000 311.87093887
1371.60000000 311.58382885
1371.90000000 311.29101134
1372.20000000 310.99057014
1372.50000000 310.79471334
1372.80000000 310.59688400
1373.10000000 310.41852343
1373.40000000 310.27797130
1373.70000000 310.18717585
1374.00000000 310.14960897
1374.30000000 310.04309124
1374.60000000 309.83296104
1374.90000000 309.62693224
1375.20000000 309.42527813
1375.50000000 309.22827199
1375.80000000 309.03618710
1376.10000000 308.84929675
1376.40000000 308.66787423
1376.70000000 308.49219280
1377.00000000 308.32252577
1377.30000000 308.15914641
1377.60000000 308.00232800
1377.90000000 307.85234382
1378.20000000 307.70946717
1378.50000000 307.57397133
1378.80000000 307.44612957
1379.10000000 307.32621518
1379.40000000 307.21450144
1379.70000000 307.11126164
1380.00000000 307.01676907
1380.30000000 306.93129699
1380.60000000 306.85511870
1380.90000000 306.78850748
1381.20000000 306.73173662
1381.50000000 306.68507939
1381.80000000 306.64880908
1382.10000000 306.62319898
1382.40000000 306.60852236
1382.70000000 306.60505251
1383.00000000 306.61306271
1383.30000000 306.63282625
1383.60000000 306.66461641
1383.90000000 306.70870647
1384.20000000 306.76536972
1384.50000000 306.83487944
1384.80000000 306.91750890
1385.10000000 307.01353141
1385.40000000 307.12322023
1385.70000000 307.24684866
1386.00000000 307.38468997
1386.30000000 307.53701744
1386.60000000 307.70410438
1386.90000000 307.88622404
1387.20000000 308.08364973
1387.50000000 308.29665471
1387.80000000 308.52551228
1388.10000000 308.77049572
1388.40000000 309.03187831
1388.70000000 309.30993334
1389.00000000 309.60493408
1389.30000000 309.91715382
1389.60000000 310.24686585
1389.90000000 310.59434345
1390.20000000 310.95985989
1390.50000000 311.34368847
1390.80000000 311.74610247
1391.10000000 312.16737517
1391.40000000 312.60777985
1391.70000000 313.06758980
1392.00000000 313.54707830
1392.30000000 314.04651864
1392.60000000 314.56618409
1392.90000000 315.10634794
1393.20000000 315.66728348
1393.50000000 316.24926398
1393.80000000 316.85256273
1394.10000000 317.47745301
1394.40000000 318.12420811
1394.70000000 318.79310131
1395.00000000 319.48440590
1395.30000000 320.19839515
1395.60000000 320.93534235
1395.90000000 321.69552078
1396.20000000 322.47920373
1396.50000000 323.28666447
